%OpenBCI Raw EEG Data
%
%Sample Rate = 250.0 Hz
%First Column = SampleIndex
%Last Column = Timestamp 
%Other Columns = EEG data in microvolts followed by Accel Data (in G) interleaved with Aux Data
0, 30557.65, 4778.42, 14931.39, -2029.49, 21266.54, 30631.72, 17775.69, 26255.05, 0.090, 0.024, 0.486, 13:15:07.524
1, 30582.64, 4832.85, 14977.52, -1987.83, 21320.23, 30662.10, 17823.64, 26282.21, 0.000, 0.000, 0.000, 13:15:07.524
2, 30539.88, 4939.85, 15055.58, -1879.25, 21405.42, 30722.23, 17930.77, 26364.62, 0.000, 0.000, 0.000, 13:15:07.524
3, 30511.09, 4896.40, 15014.49, -1905.87, 21356.11, 30695.52, 17894.81, 26347.74, 0.000, 0.000, 0.000, 13:15:07.524
4, 30547.93, 4785.35, 14933.31, -2012.51, 21266.43, 30636.78, 17785.57, 26266.54, 0.000, 0.000, 0.000, 13:15:07.524
5, 30587.06, 4810.90, 14960.09, -2001.58, 21299.16, 30650.21, 17802.94, 26271.30, 0.000, 0.000, 0.000, 13:15:07.524
6, 30546.21, 4928.49, 15046.32, -1889.84, 21395.51, 30711.59, 17916.00, 26354.65, 0.000, 0.000, 0.000, 13:15:07.524
7, 30514.06, 4913.58, 15030.43, -1891.43, 21374.01, 30702.53, 17907.68, 26358.36, 0.136, 0.038, 0.734, 13:15:07.524
8, 30539.32, 4799.75, 14945.56, -1997.80, 21279.66, 30641.45, 17799.30, 26279.55, 0.000, 0.000, 0.000, 13:15:07.524
9, 30584.29, 4789.38, 14945.99, -2022.86, 21282.26, 30637.38, 17782.33, 26258.00, 0.000, 0.000, 0.000, 13:15:07.524
10, 30549.76, 4905.38, 15031.77, -1918.11, 21378.15, 30696.30, 17892.41, 26336.28, 0.000, 0.000, 0.000, 13:15:07.524
11, 30505.28, 4919.48, 15037.78, -1894.89, 21380.70, 30704.57, 17911.12, 26358.58, 0.000, 0.000, 0.000, 13:15:07.524
12, 30515.03, 4811.57, 14953.63, -1994.54, 21286.88, 30644.64, 17808.24, 26284.24, 0.000, 0.000, 0.000, 13:15:07.525
13, 30571.80, 4773.91, 14933.09, -2045.32, 21266.41, 30627.19, 17764.74, 26242.76, 0.000, 0.000, 0.000, 13:15:07.525
14, 30558.92, 4886.29, 15016.13, -1944.80, 21360.53, 30684.94, 17870.64, 26316.56, 0.000, 0.000, 0.000, 13:15:07.525
15, 30514.71, 4934.33, 15045.88, -1889.80, 21392.18, 30711.65, 17921.74, 26360.80, 0.000, 0.000, 0.000, 13:15:07.525
16, 30512.46, 4840.00, 14969.25, -1974.53, 21307.22, 30658.03, 17832.91, 26298.64, 0.156, 0.046, 0.850, 13:15:07.525
17, 30573.79, 4778.94, 14932.51, -2045.61, 21267.39, 30631.23, 17767.54, 26242.69, 0.000, 0.000, 0.000, 13:15:07.525
18, 30577.65, 4880.39, 15011.72, -1959.35, 21358.77, 30687.87, 17862.91, 26306.84, 0.000, 0.000, 0.000, 13:15:07.525
19, 30533.78, 4955.18, 15066.66, -1879.69, 21417.64, 30734.12, 17941.83, 26370.90, 0.000, 0.000, 0.000, 13:15:07.525
20, 30522.71, 4877.33, 15002.07, -1944.69, 21343.37, 30689.41, 17872.07, 26326.29, 0.000, 0.000, 0.000, 13:15:07.525
21, 30580.49, 4789.78, 14941.94, -2034.84, 21277.79, 30645.13, 17784.52, 26256.39, 0.000, 0.000, 0.000, 13:15:07.525
22, 30598.51, 4866.15, 15002.22, -1968.21, 21346.83, 30686.26, 17856.16, 26304.29, 0.000, 0.000, 0.000, 13:15:07.525
23, 30555.68, 4957.77, 15068.50, -1870.26, 21417.75, 30736.55, 17949.75, 26379.68, 0.000, 0.000, 0.000, 13:15:07.525
24, 30530.56, 4895.23, 15012.48, -1912.75, 21353.54, 30693.93, 17895.68, 26349.62, 0.000, 0.000, 0.000, 13:15:07.525
25, 30572.16, 4786.80, 14936.58, -2014.88, 21270.10, 30635.41, 17788.57, 26268.80, 0.000, 0.000, 0.000, 13:15:07.526
26, 30596.88, 4832.18, 14976.29, -1979.34, 21316.12, 30656.73, 17826.37, 26289.09, 0.168, 0.054, 0.908, 13:15:07.526
27, 30553.74, 4939.87, 15055.08, -1870.42, 21402.04, 30713.26, 17931.96, 26370.65, 0.000, 0.000, 0.000, 13:15:07.526
28, 30517.37, 4902.45, 15019.83, -1892.39, 21360.38, 30688.14, 17901.20, 26356.24, 0.000, 0.000, 0.000, 13:15:07.526
29, 30550.63, 4791.61, 14941.18, -2002.09, 21272.20, 30629.62, 17788.99, 26272.26, 0.000, 0.000, 0.000, 13:15:07.526
30, 30584.81, 4809.78, 14963.84, -2005.15, 21299.76, 30639.41, 17794.09, 26266.72, 0.000, 0.000, 0.000, 13:15:07.526
31, 30547.37, 4929.65, 15053.74, -1896.99, 21399.18, 30702.69, 17905.89, 26348.53, 0.000, 0.000, 0.000, 13:15:07.526
32, 30504.90, 4921.65, 15041.72, -1897.31, 21383.44, 30694.89, 17900.57, 26353.55, 0.000, 0.000, 0.000, 13:15:07.526
33, 30523.50, 4809.22, 14957.32, -2008.01, 21290.28, 30633.15, 17788.81, 26268.69, 0.000, 0.000, 0.000, 13:15:07.526
34, 30567.19, 4798.20, 14956.24, -2039.48, 21292.54, 30629.38, 17767.09, 26240.14, 0.000, 0.000, 0.000, 13:15:07.526
35, 30535.75, 4914.84, 15043.19, -1938.54, 21391.56, 30690.71, 17875.16, 26315.36, 0.000, 0.000, 0.000, 13:15:07.526
36, 30494.28, 4938.86, 15055.11, -1905.69, 21400.97, 30702.53, 17903.95, 26346.13, 0.166, 0.052, 0.936, 13:15:07.526
37, 30505.01, 4834.48, 14973.75, -2000.64, 21309.64, 30645.83, 17805.96, 26277.29, 0.000, 0.000, 0.000, 13:15:07.526
38, 30563.08, 4792.12, 14950.95, -2054.71, 21284.92, 30625.73, 17759.27, 26235.45, 0.000, 0.000, 0.000, 13:15:07.527
39, 30550.95, 4899.90, 15032.82, -1958.26, 21376.47, 30681.90, 17861.48, 26306.04, 0.000, 0.000, 0.000, 13:15:07.527
40, 30507.54, 4948.09, 15063.60, -1901.84, 21407.36, 30707.59, 17913.54, 26351.28, 0.000, 0.000, 0.000, 13:15:07.527
41, 30506.35, 4856.61, 14988.81, -1979.69, 21322.83, 30655.04, 17829.67, 26295.28, 0.000, 0.000, 0.000, 13:15:07.527
42, 30567.89, 4785.60, 14944.76, -2056.45, 21274.90, 30623.07, 17756.36, 26236.03, 0.000, 0.000, 0.000, 13:15:07.527
43, 30576.80, 4880.86, 15018.67, -1971.69, 21360.71, 30676.56, 17846.93, 26297.36, 0.000, 0.000, 0.000, 13:15:07.527
44, 30534.67, 4959.99, 15072.85, -1885.08, 21418.51, 30722.70, 17930.10, 26365.38, 0.000, 0.000, 0.000, 13:15:07.527
45, 30514.71, 4884.84, 15006.85, -1942.39, 21343.93, 30678.93, 17865.03, 26323.85, 0.000, 0.000, 0.000, 13:15:07.527
46, 30569.99, 4791.97, 14942.79, -2034.61, 21275.51, 30633.91, 17773.03, 26250.83, 0.174, 0.048, 0.948, 13:15:07.527
47, 30587.65, 4861.17, 14999.90, -1974.64, 21341.02, 30672.40, 17838.44, 26291.24, 0.000, 0.000, 0.000, 13:15:07.527
48, 30546.29, 4956.70, 15069.30, -1873.32, 21416.48, 30727.08, 17937.19, 26369.94, 0.000, 0.000, 0.000, 13:15:07.527
49, 30517.42, 4900.58, 15019.03, -1910.20, 21358.41, 30692.01, 17891.70, 26346.20, 0.000, 0.000, 0.000, 13:15:07.527
50, 30565.52, 4794.00, 14944.11, -2014.03, 21276.83, 30638.72, 17785.60, 26266.85, 0.000, 0.000, 0.000, 13:15:07.527
51, 30594.64, 4836.98, 14980.90, -1985.75, 21321.39, 30659.15, 17820.06, 26282.63, 0.000, 0.000, 0.000, 13:15:07.527
52, 30554.86, 4947.76, 15059.89, -1879.98, 21408.52, 30716.08, 17926.63, 26361.11, 0.000, 0.000, 0.000, 13:15:07.527
53, 30516.50, 4920.58, 15027.32, -1895.58, 21372.36, 30693.73, 17903.43, 26352.97, 0.000, 0.000, 0.000, 13:15:07.528
54, 30548.82, 4809.11, 14944.60, -2005.82, 21282.39, 30635.21, 17790.96, 26269.89, 0.000, 0.000, 0.000, 13:15:07.528
55, 30588.45, 4823.95, 14963.58, -2007.37, 21306.08, 30644.89, 17797.13, 26265.78, 0.174, 0.056, 0.956, 13:15:07.528
56, 30559.59, 4942.40, 15050.61, -1898.27, 21404.54, 30709.24, 17910.41, 26348.68, 0.000, 0.000, 0.000, 13:15:07.528
57, 30518.18, 4940.56, 15040.96, -1888.97, 21391.36, 30706.78, 17915.12, 26361.04, 0.000, 0.000, 0.000, 13:15:07.528
58, 30541.71, 4829.50, 14958.55, -1992.95, 21299.04, 30649.67, 17810.23, 26284.85, 0.000, 0.000, 0.000, 13:15:07.528
59, 30600.48, 4815.97, 14956.87, -2021.67, 21301.08, 30646.34, 17792.90, 26262.36, 0.000, 0.000, 0.000, 13:15:07.528
60, 30582.46, 4934.62, 15046.66, -1916.26, 21401.86, 30711.43, 17906.12, 26341.82, 0.000, 0.000, 0.000, 13:15:07.528
61, 30538.63, 4964.70, 15063.82, -1876.74, 21416.28, 30727.54, 17943.09, 26376.67, 0.000, 0.000, 0.000, 13:15:07.528
62, 30546.52, 4861.93, 14983.78, -1967.78, 21325.71, 30672.47, 17848.02, 26309.57, 0.000, 0.000, 0.000, 13:15:07.528
63, 30610.45, 4814.81, 14955.95, -2023.26, 21298.35, 30651.82, 17796.88, 26263.70, 0.000, 0.000, 0.000, 13:15:07.528
64, 30604.07, 4922.06, 15037.05, -1924.04, 21390.33, 30708.05, 17897.73, 26334.06, 0.000, 0.000, 0.000, 13:15:07.528
65, 30557.94, 4975.12, 15072.56, -1856.54, 21427.05, 30735.79, 17955.58, 26385.32, 0.176, 0.058, 0.962, 13:15:07.528
66, 30546.09, 4880.46, 14995.94, -1931.46, 21341.00, 30681.50, 17870.40, 26328.07, 0.000, 0.000, 0.000, 13:15:07.529
67, 30601.24, 4803.46, 14945.76, -2010.41, 21287.00, 30643.59, 17791.00, 26265.09, 0.000, 0.000, 0.000, 13:15:07.529
68, 30601.41, 4890.09, 15014.87, -1932.33, 21365.90, 30688.41, 17870.29, 26319.16, 0.000, 0.000, 0.000, 13:15:07.529
69, 30550.21, 4965.06, 15069.59, -1849.05, 21422.31, 30727.32, 17946.39, 26381.70, 0.000, 0.000, 0.000, 13:15:07.529
70, 30520.99, 4885.80, 15003.90, -1912.88, 21346.94, 30679.00, 17874.20, 26333.30, 0.000, 0.000, 0.000, 13:15:07.529
71, 30567.60, 4784.57, 14935.64, -2018.12, 21272.56, 30625.55, 17770.44, 26250.87, 0.000, 0.000, 0.000, 13:15:07.529
72, 30582.64, 4850.51, 14991.31, -1968.94, 21336.17, 30659.06, 17827.37, 26283.62, 0.000, 0.000, 0.000, 13:15:07.529
73, 30541.15, 4950.64, 15065.41, -1873.23, 21415.36, 30713.93, 17924.67, 26357.53, 0.000, 0.000, 0.000, 13:15:07.529
74, 30506.51, 4901.33, 15018.99, -1913.67, 21362.48, 30681.43, 17880.14, 26331.27, 0.000, 0.000, 0.000, 13:15:07.529
75, 30553.07, 4793.42, 14942.88, -2026.16, 21278.77, 30627.46, 17770.06, 26246.38, 0.176, 0.056, 0.970, 13:15:07.529
76, 30586.77, 4835.78, 14979.31, -2002.20, 21323.07, 30651.97, 17804.71, 26263.03, 0.000, 0.000, 0.000, 13:15:07.529
77, 30555.97, 4948.54, 15061.97, -1894.65, 21414.11, 30714.92, 17916.53, 26347.25, 0.000, 0.000, 0.000, 13:15:07.529
78, 30523.88, 4928.00, 15037.83, -1898.62, 21384.00, 30701.33, 17906.36, 26351.68, 0.000, 0.000, 0.000, 13:15:07.529
79, 30565.05, 4817.83, 14958.19, -2001.73, 21294.91, 30647.59, 17801.29, 26277.31, 0.000, 0.000, 0.000, 13:15:07.529
80, 30613.66, 4831.75, 14975.62, -1999.63, 21317.80, 30658.43, 17809.60, 26276.78, 0.000, 0.000, 0.000, 13:15:07.529
81, 30590.55, 4951.58, 15066.66, -1887.14, 21418.96, 30724.51, 17924.38, 26361.89, 0.000, 0.000, 0.000, 13:15:07.530
82, 30543.12, 4958.15, 15063.38, -1867.51, 21413.33, 30724.51, 17935.96, 26380.85, 0.000, 0.000, 0.000, 13:15:07.530
83, 30561.27, 4849.01, 14980.99, -1970.15, 21322.31, 30669.01, 17827.82, 26302.37, 0.000, 0.000, 0.000, 13:15:07.530
84, 30614.22, 4829.59, 14974.84, -2001.00, 21317.93, 30662.14, 17799.28, 26272.04, 0.000, 0.000, 0.000, 13:15:07.530
85, 30596.43, 4940.38, 15060.43, -1897.98, 21413.17, 30721.60, 17903.43, 26344.19, 0.172, 0.062, 0.964, 13:15:07.530
86, 30546.12, 4968.19, 15074.62, -1857.34, 21425.04, 30731.50, 17935.78, 26373.52, 0.000, 0.000, 0.000, 13:15:07.530
87, 30546.65, 4864.39, 14991.72, -1949.99, 21333.29, 30671.38, 17836.38, 26300.96, 0.000, 0.000, 0.000, 13:15:07.530
88, 30600.81, 4812.13, 14958.10, -2013.09, 21300.14, 30643.17, 17778.04, 26248.55, 0.000, 0.000, 0.000, 13:15:07.530
89, 30591.51, 4912.85, 15035.17, -1926.30, 21387.73, 30695.87, 17872.54, 26311.09, 0.000, 0.000, 0.000, 13:15:07.530
90, 30539.10, 4967.81, 15070.86, -1867.33, 21424.39, 30722.67, 17930.46, 26358.88, 0.000, 0.000, 0.000, 13:15:07.530
91, 30526.85, 4880.39, 14997.66, -1945.16, 21341.89, 30670.55, 17848.07, 26304.34, 0.000, 0.000, 0.000, 13:15:07.530
92, 30580.92, 4800.26, 14945.18, -2035.08, 21284.87, 30630.14, 17763.91, 26237.44, 0.000, 0.000, 0.000, 13:15:07.530
93, 30579.29, 4881.44, 15012.84, -1968.83, 21362.03, 30675.06, 17839.46, 26286.63, 0.000, 0.000, 0.000, 13:15:07.530
94, 30530.18, 4959.47, 15070.95, -1886.51, 21422.45, 30718.34, 17921.03, 26354.03, 0.170, 0.056, 0.966, 13:15:07.530
95, 30503.16, 4885.02, 15009.40, -1942.57, 21350.10, 30672.89, 17859.56, 26317.86, 0.000, 0.000, 0.000, 13:15:07.531
96, 30558.72, 4783.18, 14939.57, -2040.45, 21273.88, 30621.87, 17763.65, 26245.39, 0.000, 0.000, 0.000, 13:15:07.531
97, 30579.29, 4842.51, 14987.96, -1990.00, 21330.47, 30654.32, 17820.51, 26279.97, 0.000, 0.000, 0.000, 13:15:07.531
98, 30547.70, 4946.58, 15062.13, -1881.39, 21411.96, 30710.02, 17927.53, 26363.57, 0.000, 0.000, 0.000, 13:15:07.531
99, 30518.04, 4903.17, 15017.82, -1906.76, 21360.96, 30680.92, 17892.17, 26345.87, 0.000, 0.000, 0.000, 13:15:07.531
100, 30566.21, 4794.40, 14938.25, -2011.14, 21275.35, 30626.05, 17782.24, 26262.81, 0.000, 0.000, 0.000, 13:15:07.531
101, 30596.25, 4831.20, 14970.21, -1985.97, 21315.49, 30642.59, 17807.46, 26272.98, 0.000, 0.000, 0.000, 13:15:07.531
102, 30554.74, 4944.74, 15056.45, -1876.88, 21408.92, 30701.19, 17913.07, 26352.68, 0.000, 0.000, 0.000, 13:15:07.531
103, 30504.95, 4925.01, 15033.49, -1882.37, 21380.94, 30684.43, 17896.04, 26348.71, 0.000, 0.000, 0.000, 13:15:07.531
104, 30534.63, 4808.71, 14949.58, -1992.75, 21288.20, 30624.32, 17780.61, 26263.59, 0.170, 0.050, 0.970, 13:15:07.531
105, 30571.15, 4813.40, 14960.92, -2000.73, 21303.09, 30627.63, 17777.82, 26252.46, 0.000, 0.000, 0.000, 13:15:07.531
106, 30543.43, 4925.52, 15047.82, -1895.45, 21397.86, 30689.93, 17886.02, 26330.87, 0.000, 0.000, 0.000, 13:15:07.531
107, 30495.58, 4932.67, 15045.79, -1873.93, 21392.59, 30690.75, 17902.54, 26351.43, 0.000, 0.000, 0.000, 13:15:07.531
108, 30515.63, 4818.75, 14960.96, -1977.73, 21298.15, 30632.13, 17797.15, 26275.90, 0.000, 0.000, 0.000, 13:15:07.531
109, 30569.23, 4791.39, 14948.85, -2016.42, 21287.82, 30621.93, 17768.88, 26245.66, 0.000, 0.000, 0.000, 13:15:07.531
110, 30555.57, 4903.59, 15036.40, -1918.99, 21385.43, 30688.03, 17877.73, 26322.20, 0.000, 0.000, 0.000, 13:15:07.532
111, 30510.20, 4945.97, 15062.46, -1873.77, 21411.16, 30711.94, 17926.14, 26366.54, 0.000, 0.000, 0.000, 13:15:07.532
112, 30517.82, 4849.48, 14987.65, -1967.56, 21327.23, 30663.51, 17834.97, 26304.72, 0.000, 0.000, 0.000, 13:15:07.532
113, 30579.73, 4796.89, 14955.82, -2035.98, 21293.61, 30640.62, 17776.83, 26255.61, 0.000, 0.000, 0.000, 13:15:07.532
114, 30576.80, 4901.80, 15036.93, -1947.73, 21385.57, 30698.09, 17874.78, 26322.89, 0.176, 0.048, 0.972, 13:15:07.532
115, 30532.06, 4968.90, 15082.49, -1875.13, 21433.18, 30733.49, 17945.30, 26382.68, 0.000, 0.000, 0.000, 13:15:07.532
116, 30522.07, 4883.81, 15010.40, -1945.63, 21354.77, 30683.45, 17866.51, 26329.06, 0.000, 0.000, 0.000, 13:15:07.532
117, 30579.29, 4803.97, 14955.19, -2027.21, 21295.58, 30640.84, 17782.13, 26259.88, 0.000, 0.000, 0.000, 13:15:07.532
118, 30585.86, 4885.38, 15019.66, -1953.56, 21369.52, 30683.49, 17855.02, 26305.23, 0.000, 0.000, 0.000, 13:15:07.532
119, 30546.23, 4972.23, 15081.71, -1857.03, 21436.69, 30728.91, 17942.13, 26374.45, 0.000, 0.000, 0.000, 13:15:07.532
120, 30525.26, 4908.33, 15024.98, -1901.35, 21372.54, 30688.74, 17885.78, 26338.42, 0.000, 0.000, 0.000, 13:15:08.001
121, 30583.13, 4809.47, 14956.00, -1998.76, 21297.52, 30639.21, 17785.84, 26260.50, 0.000, 0.000, 0.000, 13:15:08.001
122, 30604.50, 4870.74, 15006.56, -1952.49, 21358.19, 30673.70, 17838.01, 26290.43, 0.000, 0.000, 0.000, 13:15:08.001
123, 30565.56, 4975.41, 15084.03, -1850.03, 21442.27, 30731.46, 17939.24, 26367.86, 0.000, 0.000, 0.000, 13:15:08.001
124, 30524.79, 4932.34, 15042.81, -1877.97, 21394.73, 30703.43, 17904.60, 26350.43, 0.178, 0.054, 0.972, 13:15:08.001
125, 30565.23, 4817.69, 14961.43, -1990.74, 21305.39, 30646.88, 17792.52, 26267.39, 0.000, 0.000, 0.000, 13:15:08.001
126, 30594.11, 4846.01, 14988.92, -1978.08, 21339.90, 30663.08, 17813.47, 26275.35, 0.000, 0.000, 0.000, 13:15:08.001
127, 30556.78, 4951.96, 15069.88, -1880.47, 21428.01, 30719.88, 17915.21, 26352.39, 0.000, 0.000, 0.000, 13:15:08.001
128, 30503.71, 4936.02, 15048.74, -1887.58, 21401.46, 30704.57, 17903.48, 26353.78, 0.000, 0.000, 0.000, 13:15:08.001
129, 30531.41, 4821.18, 14965.48, -2003.66, 21308.16, 30645.71, 17788.43, 26271.37, 0.000, 0.000, 0.000, 13:15:08.001
130, 30570.68, 4823.95, 14975.96, -2020.04, 21322.49, 30650.01, 17783.29, 26260.42, 0.000, 0.000, 0.000, 13:15:08.002
131, 30549.51, 4941.90, 15068.36, -1916.01, 21423.63, 30719.77, 17896.66, 26344.59, 0.000, 0.000, 0.000, 13:15:08.002
132, 30502.49, 4960.30, 15074.19, -1890.49, 21427.37, 30729.58, 17921.58, 26373.69, 0.000, 0.000, 0.000, 13:15:08.002
133, 30526.74, 4853.21, 14994.47, -1993.24, 21337.82, 30676.52, 17819.23, 26301.14, 0.000, 0.000, 0.000, 13:15:08.002
134, 30585.54, 4828.98, 14982.62, -2032.82, 21328.10, 30664.94, 17788.28, 26270.76, 0.182, 0.060, 0.966, 13:15:08.002
135, 30582.19, 4941.81, 15069.50, -1933.47, 21425.58, 30727.19, 17894.63, 26345.31, 0.000, 0.000, 0.000, 13:15:08.002
136, 30537.18, 4985.47, 15093.57, -1877.35, 21449.16, 30747.33, 17945.30, 26389.21, 0.000, 0.000, 0.000, 13:15:08.002
137, 30545.20, 4884.93, 15013.33, -1959.78, 21358.50, 30691.69, 17855.71, 26325.86, 0.000, 0.000, 0.000, 13:15:08.002
138, 30604.79, 4824.89, 14973.83, -2018.34, 21317.64, 30661.32, 17797.89, 26274.03, 0.000, 0.000, 0.000, 13:15:08.002
139, 30607.94, 4919.71, 15049.47, -1925.22, 21403.13, 30714.96, 17891.79, 26335.45, 0.000, 0.000, 0.000, 13:15:08.002
140, 30556.02, 4981.04, 15091.85, -1846.81, 21447.93, 30746.70, 17960.86, 26390.64, 0.000, 0.000, 0.000, 13:15:08.002
141, 30536.91, 4892.75, 15021.40, -1913.00, 21367.24, 30694.51, 17882.63, 26337.37, 0.000, 0.000, 0.000, 13:15:08.002
142, 30588.58, 4802.43, 14960.33, -2002.14, 21301.73, 30646.10, 17789.39, 26263.14, 0.000, 0.000, 0.000, 13:15:08.002
143, 30589.28, 4872.99, 15017.60, -1943.62, 21367.91, 30681.63, 17849.01, 26298.35, 0.178, 0.058, 0.966, 13:15:08.002
144, 30537.87, 4957.06, 15078.31, -1855.75, 21431.88, 30723.43, 17931.82, 26364.40, 0.000, 0.000, 0.000, 13:15:08.003
145, 30500.00, 4889.24, 15021.42, -1909.22, 21365.79, 30679.89, 17870.11, 26326.80, 0.000, 0.000, 0.000, 13:15:08.003
146, 30545.31, 4781.82, 14946.59, -2020.87, 21283.46, 30621.98, 17759.82, 26241.46, 0.000, 0.000, 0.000, 13:15:08.003
147, 30560.33, 4832.76, 14990.53, -1989.80, 21334.47, 30648.53, 17800.06, 26261.69, 0.000, 0.000, 0.000, 13:15:08.003
148, 30519.41, 4935.58, 15066.19, -1895.25, 21416.99, 30703.96, 17898.03, 26338.31, 0.000, 0.000, 0.000, 13:15:08.003
149, 30477.63, 4897.71, 15028.96, -1922.85, 21373.14, 30679.09, 17866.67, 26325.88, 0.000, 0.000, 0.000, 13:15:08.003
150, 30519.05, 4783.92, 14947.91, -2037.12, 21282.75, 30622.56, 17756.72, 26245.13, 0.000, 0.000, 0.000, 13:15:08.003
151, 30556.42, 4813.74, 14976.58, -2024.08, 21317.21, 30642.81, 17782.60, 26258.13, 0.000, 0.000, 0.000, 13:15:08.003
152, 30535.25, 4929.99, 15063.64, -1913.85, 21413.82, 30710.40, 17900.08, 26346.89, 0.000, 0.000, 0.000, 13:15:08.003
153, 30499.29, 4922.21, 15046.79, -1904.68, 21394.08, 30705.19, 17907.14, 26360.66, 0.180, 0.054, 0.970, 13:15:08.003
154, 30542.79, 4811.46, 14963.22, -2002.76, 21301.84, 30652.38, 17809.09, 26289.63, 0.000, 0.000, 0.000, 13:15:08.004
155, 30597.91, 4810.99, 14967.64, -2008.77, 21310.06, 30656.49, 17811.34, 26282.39, 0.000, 0.000, 0.000, 13:15:08.004
156, 30590.57, 4927.53, 15056.09, -1895.54, 21407.70, 30722.47, 17927.64, 26366.47, 0.000, 0.000, 0.000, 13:15:08.004
157, 30545.87, 4950.24, 15063.58, -1856.92, 21412.66, 30730.36, 17957.70, 26394.95, 0.000, 0.000, 0.000, 13:15:08.004
158, 30570.23, 4846.73, 14983.85, -1951.69, 21324.08, 30676.16, 17856.83, 26321.59, 0.000, 0.000, 0.000, 13:15:08.004
159, 30623.12, 4817.85, 14967.58, -1994.60, 21310.17, 30662.14, 17817.71, 26282.07, 0.000, 0.000, 0.000, 13:15:08.004
160, 30619.94, 4930.08, 15053.97, -1899.32, 21408.57, 30724.75, 17916.02, 26348.62, 0.000, 0.000, 0.000, 13:15:08.004
161, 30572.42, 4983.57, 15084.57, -1840.64, 21440.82, 30749.12, 17966.71, 26392.65, 0.000, 0.000, 0.000, 13:15:08.004
162, 30573.79, 4887.39, 15008.08, -1925.92, 21354.70, 30696.03, 17872.74, 26327.29, 0.000, 0.000, 0.000, 13:15:08.005
163, 30623.01, 4821.67, 14964.74, -2001.08, 21308.92, 30661.47, 17800.06, 26265.94, 0.176, 0.052, 0.972, 13:15:08.005
164, 30624.91, 4916.58, 15040.11, -1921.74, 21393.26, 30712.32, 17884.32, 26322.93, 0.000, 0.000, 0.000, 13:15:08.005
165, 30575.42, 4987.57, 15088.68, -1846.57, 21443.66, 30747.19, 17954.66, 26381.61, 0.000, 0.000, 0.000, 13:15:08.006
166, 30556.11, 4904.11, 15019.68, -1918.16, 21365.34, 30697.46, 17876.05, 26330.15, 0.000, 0.000, 0.000, 13:15:08.006
167, 30606.31, 4816.40, 14957.76, -2013.78, 21299.74, 30649.81, 17783.36, 26255.68, 0.000, 0.000, 0.000, 13:15:08.006
168, 30616.37, 4890.94, 15017.71, -1957.25, 21369.92, 30689.17, 17846.12, 26293.52, 0.000, 0.000, 0.000, 13:15:08.006
169, 30570.81, 4983.08, 15082.78, -1866.80, 21441.04, 30736.87, 17936.02, 26363.70, 0.000, 0.000, 0.000, 13:15:08.006
170, 30542.07, 4925.74, 15031.86, -1911.61, 21382.04, 30701.75, 17886.56, 26334.18, 0.000, 0.000, 0.000, 13:15:08.006
171, 30595.07, 4821.23, 14958.79, -2019.10, 21302.02, 30648.53, 17782.38, 26254.83, 0.000, 0.000, 0.000, 13:15:08.006
172, 30618.65, 4873.75, 15004.17, -1982.69, 21355.84, 30679.04, 17828.22, 26279.75, 0.000, 0.000, 0.000, 13:15:08.006
173, 30584.88, 4983.79, 15086.26, -1877.35, 21445.00, 30740.82, 17937.68, 26361.60, 0.178, 0.056, 0.968, 13:15:08.006
174, 30548.11, 4953.57, 15053.09, -1892.95, 21406.51, 30722.27, 17919.30, 26354.47, 0.000, 0.000, 0.000, 13:15:08.007
175, 30594.93, 4840.36, 14970.71, -2001.46, 21316.88, 30667.91, 17812.84, 26274.54, 0.000, 0.000, 0.000, 13:15:08.007
176, 30631.14, 4862.51, 14992.90, -1991.50, 21344.82, 30684.23, 17831.97, 26279.26, 0.000, 0.000, 0.000, 13:15:08.007
177, 30609.46, 4977.98, 15080.52, -1878.69, 21440.64, 30749.65, 17948.34, 26365.85, 0.000, 0.000, 0.000, 13:15:08.007
178, 30564.38, 4976.75, 15070.69, -1863.26, 21427.61, 30746.81, 17957.57, 26383.57, 0.000, 0.000, 0.000, 13:15:08.008
179, 30599.76, 4863.94, 14988.39, -1967.00, 21335.05, 30691.31, 17850.44, 26307.94, 0.000, 0.000, 0.000, 13:15:08.008
180, 30646.97, 4856.43, 14987.98, -1985.97, 21339.34, 30687.92, 17837.18, 26289.32, 0.000, 0.000, 0.000, 13:15:08.008
181, 30634.29, 4968.66, 15074.42, -1883.00, 21435.32, 30748.49, 17943.55, 26365.04, 0.000, 0.000, 0.000, 13:15:08.008
182, 30580.16, 4994.45, 15083.27, -1845.34, 21443.82, 30755.75, 17973.28, 26394.17, 0.180, 0.054, 0.970, 13:15:08.008
183, 30594.46, 4885.49, 15000.30, -1944.09, 21350.54, 30696.30, 17867.07, 26318.46, 0.000, 0.000, 0.000, 13:15:08.008
184, 30641.51, 4844.94, 14975.80, -1995.81, 21327.47, 30672.87, 17818.99, 26273.78, 0.000, 0.000, 0.000, 13:15:08.008
185, 30633.20, 4948.77, 15056.94, -1905.69, 21419.81, 30729.63, 17913.09, 26338.71, 0.000, 0.000, 0.000, 13:15:08.008
186, 30576.38, 5001.07, 15087.67, -1846.23, 21451.71, 30752.27, 17965.50, 26384.51, 0.000, 0.000, 0.000, 13:15:08.008
187, 30572.74, 4902.27, 15009.84, -1934.28, 21362.59, 30697.48, 17870.35, 26316.96, 0.000, 0.000, 0.000, 13:15:08.008
188, 30623.68, 4834.37, 14964.02, -2007.68, 21313.46, 30660.33, 17799.48, 26256.26, 0.000, 0.000, 0.000, 13:15:08.008
189, 30631.19, 4923.96, 15037.76, -1930.77, 21395.51, 30711.27, 17882.13, 26311.60, 0.000, 0.000, 0.000, 13:15:08.009
190, 30580.11, 4997.89, 15090.24, -1851.08, 21450.37, 30749.83, 17959.87, 26374.12, 0.000, 0.000, 0.000, 13:15:08.009
191, 30564.45, 4918.72, 15026.36, -1916.10, 21375.60, 30705.95, 17890.51, 26329.82, 0.000, 0.000, 0.000, 13:15:08.009
192, 30621.53, 4828.24, 14964.94, -2008.37, 21308.99, 30661.65, 17802.45, 26261.64, 0.176, 0.056, 0.972, 13:15:08.009
193, 30641.00, 4902.12, 15026.61, -1949.65, 21379.98, 30705.95, 17870.06, 26303.33, 0.000, 0.000, 0.000, 13:15:08.009
194, 30598.40, 5002.50, 15098.65, -1850.86, 21457.09, 30760.29, 17969.53, 26381.90, 0.000, 0.000, 0.000, 13:15:08.009
195, 30565.23, 4948.79, 15049.94, -1891.87, 21400.59, 30728.08, 17922.77, 26354.79, 0.000, 0.000, 0.000, 13:15:08.009
196, 30613.64, 4840.27, 14972.72, -2000.68, 21316.21, 30672.31, 17814.29, 26271.30, 0.000, 0.000, 0.000, 13:15:08.009
197, 30642.18, 4888.13, 15015.14, -1967.71, 21367.22, 30700.92, 17853.52, 26292.56, 0.000, 0.000, 0.000, 13:15:08.009
198, 30607.99, 4996.46, 15096.73, -1863.62, 21455.97, 30759.29, 17958.42, 26372.44, 0.000, 0.000, 0.000, 13:15:08.009
199, 30564.69, 4969.82, 15066.86, -1876.36, 21420.86, 30738.90, 17937.81, 26366.92, 0.000, 0.000, 0.000, 13:15:08.010
200, 30603.92, 4852.54, 14983.18, -1988.93, 21326.76, 30678.66, 17821.47, 26283.33, 0.000, 0.000, 0.000, 13:15:08.010
201, 30637.60, 4866.78, 15002.31, -1989.39, 21349.40, 30686.24, 17828.06, 26280.64, 0.000, 0.000, 0.000, 13:15:08.010
202, 30612.28, 4981.13, 15089.51, -1884.90, 21445.22, 30747.80, 17936.40, 26361.71, 0.176, 0.052, 0.974, 13:15:08.010
203, 30556.53, 4984.08, 15084.45, -1867.96, 21436.42, 30746.19, 17946.15, 26380.27, 0.000, 0.000, 0.000, 13:15:08.010
204, 30578.59, 4867.83, 15000.46, -1977.06, 21342.29, 30687.67, 17833.85, 26302.32, 0.000, 0.000, 0.000, 13:15:08.010
205, 30621.58, 4852.63, 14996.66, -2004.64, 21340.57, 30681.26, 17811.79, 26278.28, 0.000, 0.000, 0.000, 13:15:08.010
206, 30610.45, 4964.10, 15083.69, -1903.52, 21437.02, 30742.52, 17917.45, 26353.94, 0.000, 0.000, 0.000, 13:15:08.010
207, 30553.76, 4995.75, 15097.44, -1860.11, 21450.72, 30756.65, 17955.49, 26390.68, 0.000, 0.000, 0.000, 13:15:08.010
208, 30569.45, 4885.69, 15013.31, -1956.54, 21356.00, 30700.46, 17854.64, 26319.83, 0.000, 0.000, 0.000, 13:15:08.010
209, 30618.78, 4837.99, 14981.68, -2009.02, 21326.09, 30675.27, 17806.16, 26275.10, 0.000, 0.000, 0.000, 13:15:08.011
210, 30620.37, 4938.37, 15060.36, -1916.33, 21414.91, 30731.19, 17903.66, 26342.60, 0.000, 0.000, 0.000, 13:15:08.011
211, 30571.08, 4997.31, 15097.17, -1843.75, 21453.49, 30760.71, 17970.69, 26397.72, 0.000, 0.000, 0.000, 13:15:08.011
212, 30574.03, 4903.32, 15022.32, -1921.60, 21369.52, 30710.40, 17885.82, 26338.65, 0.182, 0.052, 0.966, 13:15:08.011
213, 30625.42, 4829.45, 14971.00, -1999.90, 21315.43, 30669.70, 17809.82, 26275.12, 0.000, 0.000, 0.000, 13:15:08.011
214, 30637.45, 4919.04, 15043.80, -1924.35, 21396.01, 30720.30, 17890.78, 26328.92, 0.000, 0.000, 0.000, 13:15:08.011
215, 30588.76, 5003.39, 15101.60, -1835.01, 21457.96, 30763.20, 17976.57, 26396.04, 0.000, 0.000, 0.000, 13:15:08.011
216, 30571.51, 4926.97, 15038.61, -1897.51, 21386.77, 30720.44, 17906.65, 26350.20, 0.000, 0.000, 0.000, 13:15:08.011
217, 30621.69, 4830.79, 14971.33, -1994.94, 21313.24, 30669.25, 17809.51, 26276.08, 0.000, 0.000, 0.000, 13:15:08.011
218, 30642.65, 4897.09, 15028.04, -1943.01, 21377.74, 30708.70, 17868.16, 26313.39, 0.000, 0.000, 0.000, 13:15:08.011
219, 30600.16, 4996.29, 15099.85, -1844.82, 21455.39, 30760.43, 17966.04, 26390.66, 0.000, 0.000, 0.000, 13:15:08.011
220, 30566.17, 4944.50, 15054.32, -1882.58, 21402.00, 30729.47, 17922.61, 26367.28, 0.000, 0.000, 0.000, 13:15:08.012
221, 30610.11, 4832.72, 14976.50, -1990.56, 21315.36, 30671.85, 17814.63, 26286.46, 0.186, 0.054, 0.970, 13:15:08.012
222, 30639.35, 4873.15, 15014.40, -1963.11, 21360.31, 30694.89, 17849.07, 26303.89, 0.000, 0.000, 0.000, 13:15:08.012
223, 30603.36, 4983.57, 15096.21, -1856.92, 21449.49, 30752.54, 17955.94, 26385.16, 0.000, 0.000, 0.000, 13:15:08.012
224, 30559.42, 4960.86, 15068.27, -1865.01, 21417.24, 30734.68, 17940.47, 26382.19, 0.000, 0.000, 0.000, 13:15:08.012
225, 30599.34, 4844.65, 14981.46, -1976.25, 21322.27, 30674.93, 17827.68, 26300.60, 0.000, 0.000, 0.000, 13:15:08.012
226, 30638.34, 4858.24, 14996.59, -1975.51, 21341.69, 30684.54, 17836.80, 26298.88, 0.000, 0.000, 0.000, 13:15:08.012
227, 30619.90, 4973.37, 15083.65, -1865.57, 21437.60, 30749.94, 17951.36, 26382.54, 0.000, 0.000, 0.000, 13:15:08.012
228, 30570.26, 4981.15, 15080.74, -1840.08, 21431.39, 30751.62, 17970.22, 26404.38, 0.000, 0.000, 0.000, 13:15:08.012
229, 30599.27, 4866.27, 14994.73, -1943.91, 21336.28, 30693.17, 17862.11, 26325.84, 0.000, 0.000, 0.000, 13:15:08.012
230, 30645.07, 4850.66, 14987.31, -1969.57, 21333.02, 30685.88, 17841.34, 26299.55, 0.000, 0.000, 0.000, 13:15:08.012
231, 30636.93, 4961.84, 15074.55, -1867.40, 21429.04, 30746.37, 17944.14, 26372.26, 0.186, 0.054, 0.968, 13:15:08.012
232, 30580.74, 4996.42, 15093.08, -1819.83, 21447.08, 30759.87, 17981.96, 26408.00, 0.000, 0.000, 0.000, 13:15:08.012
233, 30591.36, 4883.54, 15008.28, -1919.61, 21352.20, 30699.70, 17874.62, 26332.84, 0.000, 0.000, 0.000, 13:15:08.013
234, 30638.74, 4833.70, 14976.34, -1976.56, 21319.96, 30671.00, 17820.35, 26286.12, 0.000, 0.000, 0.000, 13:15:08.013
235, 30638.23, 4929.95, 15054.48, -1893.08, 21407.34, 30726.41, 17908.91, 26346.36, 0.000, 0.000, 0.000, 13:15:08.013
236, 30581.16, 4993.58, 15093.37, -1822.67, 21448.04, 30756.51, 17974.18, 26402.75, 0.000, 0.000, 0.000, 13:15:08.013
237, 30578.10, 4900.69, 15018.90, -1906.31, 21364.56, 30704.95, 17885.84, 26343.65, 0.000, 0.000, 0.000, 13:15:08.013
238, 30624.48, 4822.17, 14964.58, -1992.19, 21306.44, 30662.90, 17803.59, 26277.36, 0.000, 0.000, 0.000, 13:15:08.013
239, 30638.76, 4906.16, 15035.48, -1923.57, 21386.21, 30713.51, 17879.34, 26326.53, 0.000, 0.000, 0.000, 13:15:08.013
240, 30586.37, 4993.02, 15095.65, -1835.77, 21452.15, 30760.29, 17966.98, 26395.44, 0.000, 0.000, 0.000, 13:15:08.482
241, 30567.75, 4922.08, 15037.83, -1897.73, 21384.47, 30721.42, 17901.65, 26353.60, 0.180, 0.058, 0.966, 13:15:08.482
242, 30610.87, 4826.66, 14971.18, -2000.68, 21311.29, 30672.13, 17802.40, 26275.84, 0.000, 0.000, 0.000, 13:15:08.482
243, 30627.68, 4887.37, 15024.35, -1959.73, 21372.78, 30709.28, 17853.21, 26305.61, 0.000, 0.000, 0.000, 13:15:08.482
244, 30584.74, 4995.01, 15103.23, -1855.80, 21457.79, 30766.82, 17958.26, 26387.42, 0.000, 0.000, 0.000, 13:15:08.482
245, 30550.90, 4948.74, 15063.00, -1890.09, 21410.06, 30739.57, 17917.58, 26364.87, 0.000, 0.000, 0.000, 13:15:08.482
246, 30596.01, 4836.98, 14983.87, -1999.81, 21322.16, 30680.09, 17807.92, 26281.98, 0.000, 0.000, 0.000, 13:15:08.482
247, 30628.86, 4872.68, 15017.80, -1976.03, 21363.46, 30701.48, 17838.81, 26296.20, 0.000, 0.000, 0.000, 13:15:08.483
248, 30596.43, 4984.35, 15101.22, -1864.38, 21455.53, 30762.28, 17951.15, 26380.85, 0.000, 0.000, 0.000, 13:15:08.483
249, 30551.15, 4962.22, 15076.32, -1865.41, 21425.58, 30748.24, 17942.46, 26382.59, 0.000, 0.000, 0.000, 13:15:08.483
250, 30589.54, 4844.45, 14989.95, -1969.12, 21328.73, 30688.03, 17834.43, 26305.54, 0.000, 0.000, 0.000, 13:15:08.483
251, 30631.39, 4851.51, 15000.68, -1969.32, 21343.63, 30694.08, 17839.62, 26301.59, 0.182, 0.054, 0.966, 13:15:08.483
252, 30614.76, 4966.18, 15086.91, -1858.79, 21439.44, 30758.57, 17953.90, 26385.25, 0.000, 0.000, 0.000, 13:15:08.483
253, 30565.92, 4978.58, 15086.80, -1829.24, 21437.36, 30762.66, 17976.72, 26409.90, 0.000, 0.000, 0.000, 13:15:08.483
254, 30595.04, 4863.81, 15001.04, -1931.03, 21341.74, 30703.70, 17870.38, 26332.99, 0.000, 0.000, 0.000, 13:15:08.483
255, 30641.87, 4840.92, 14989.21, -1962.80, 21331.56, 30691.74, 17844.43, 26303.93, 0.000, 0.000, 0.000, 13:15:08.483
0, 30636.95, 4950.11, 15075.13, -1864.27, 21426.34, 30752.38, 17947.87, 26376.24, 0.000, 0.000, 0.000, 13:15:08.484
1, 30584.56, 4993.40, 15098.96, -1810.51, 21450.43, 30773.08, 17995.57, 26419.61, 0.000, 0.000, 0.000, 13:15:08.484
2, 30594.31, 4887.97, 15018.34, -1905.98, 21360.60, 30717.08, 17894.89, 26348.26, 0.000, 0.000, 0.000, 13:15:08.484
3, 30638.05, 4834.86, 14982.66, -1969.84, 21324.44, 30687.78, 17834.72, 26294.68, 0.000, 0.000, 0.000, 13:15:08.484
4, 30640.96, 4928.40, 15058.91, -1890.94, 21409.82, 30739.75, 17919.13, 26352.15, 0.000, 0.000, 0.000, 13:15:08.484
5, 30584.63, 4996.69, 15103.92, -1817.80, 21457.09, 30773.39, 17989.15, 26410.87, 0.180, 0.054, 0.964, 13:15:08.485
6, 30577.65, 4905.63, 15032.71, -1898.04, 21375.62, 30725.18, 17903.61, 26354.63, 0.000, 0.000, 0.000, 13:15:08.485
7, 30620.41, 4825.25, 14976.27, -1985.53, 21316.16, 30681.81, 17819.17, 26288.71, 0.000, 0.000, 0.000, 13:15:08.485
8, 30633.65, 4903.10, 15040.58, -1925.80, 21390.31, 30727.32, 17886.36, 26333.19, 0.000, 0.000, 0.000, 13:15:08.486
9, 30583.22, 4997.51, 15105.00, -1830.21, 21460.80, 30777.19, 17981.60, 26409.46, 0.000, 0.000, 0.000, 13:15:08.486
10, 30567.42, 4930.01, 15048.58, -1884.41, 21396.18, 30741.54, 17923.37, 26374.07, 0.000, 0.000, 0.000, 13:15:08.486
11, 30616.14, 4829.36, 14973.32, -1983.74, 21317.35, 30687.04, 17825.65, 26297.63, 0.000, 0.000, 0.000, 13:15:08.486
12, 30651.26, 4888.51, 15022.76, -1935.10, 21375.55, 30723.01, 17880.01, 26330.53, 0.000, 0.000, 0.000, 13:15:08.486
13, 30613.60, 4995.57, 15100.44, -1823.05, 21459.48, 30779.16, 17990.56, 26414.44, 0.000, 0.000, 0.000, 13:15:08.486
14, 30582.75, 4951.83, 15061.30, -1846.52, 21413.06, 30753.70, 17958.46, 26399.49, 0.174, 0.052, 0.966, 13:15:08.486
15, 30626.61, 4838.17, 14979.20, -1951.15, 21322.63, 30694.31, 17851.09, 26318.78, 0.000, 0.000, 0.000, 13:15:08.486
16, 30662.66, 4869.13, 15008.73, -1930.81, 21357.78, 30713.91, 17875.49, 26326.60, 0.000, 0.000, 0.000, 13:15:08.486
17, 30630.85, 4983.08, 15092.52, -1821.42, 21450.10, 30772.32, 17984.57, 26405.41, 0.000, 0.000, 0.000, 13:15:08.486
18, 30584.36, 4968.14, 15072.67, -1823.75, 21425.78, 30758.66, 17973.06, 26403.31, 0.000, 0.000, 0.000, 13:15:08.486
19, 30615.36, 4849.08, 14984.05, -1938.83, 21327.65, 30693.46, 17853.84, 26313.23, 0.000, 0.000, 0.000, 13:15:08.486
20, 30651.46, 4849.34, 14989.12, -1956.54, 21336.93, 30690.71, 17841.88, 26292.22, 0.000, 0.000, 0.000, 13:15:08.487
21, 30623.28, 4961.48, 15072.88, -1859.31, 21430.81, 30747.33, 17941.95, 26363.21, 0.000, 0.000, 0.000, 13:15:08.487
22, 30563.21, 4978.09, 15075.45, -1837.13, 21432.28, 30749.25, 17957.70, 26380.67, 0.000, 0.000, 0.000, 13:15:08.487
23, 30584.07, 4866.62, 14990.02, -1946.32, 21337.22, 30687.04, 17844.56, 26298.21, 0.000, 0.000, 0.000, 13:15:08.487
24, 30628.73, 4842.10, 14975.47, -1988.23, 21324.68, 30674.17, 17808.73, 26263.63, 0.178, 0.050, 0.972, 13:15:08.487
25, 30623.70, 4948.43, 15058.88, -1897.31, 21418.40, 30735.30, 17906.23, 26332.48, 0.000, 0.000, 0.000, 13:15:08.487
26, 30575.04, 4997.69, 15086.69, -1839.91, 21447.97, 30758.30, 17960.05, 26380.56, 0.000, 0.000, 0.000, 13:15:08.487
27, 30591.65, 4895.99, 15008.10, -1931.24, 21358.83, 30705.08, 17866.31, 26316.41, 0.000, 0.000, 0.000, 13:15:08.487
28, 30645.85, 4843.15, 14973.61, -1990.40, 21322.89, 30679.85, 17815.03, 26271.68, 0.000, 0.000, 0.000, 13:15:08.488
29, 30659.17, 4936.72, 15051.82, -1905.87, 21409.01, 30739.15, 17909.63, 26336.19, 0.000, 0.000, 0.000, 13:15:08.488
30, 30609.46, 5010.50, 15102.54, -1817.53, 21462.39, 30780.97, 17997.15, 26408.50, 0.000, 0.000, 0.000, 13:15:08.488
31, 30607.99, 4922.48, 15035.37, -1885.03, 21384.12, 30738.30, 17925.12, 26363.30, 0.000, 0.000, 0.000, 13:15:08.488
32, 30654.88, 4840.34, 14979.76, -1966.31, 21324.08, 30696.43, 17847.55, 26304.47, 0.000, 0.000, 0.000, 13:15:08.488
33, 30673.59, 4914.32, 15046.81, -1903.77, 21397.73, 30742.66, 17916.89, 26353.89, 0.000, 0.000, 0.000, 13:15:08.488
34, 30617.57, 5008.98, 15115.68, -1804.39, 21471.46, 30792.52, 18013.45, 26434.07, 0.180, 0.054, 0.960, 13:15:08.489
35, 30590.51, 4942.48, 15062.95, -1856.56, 21408.52, 30755.66, 17953.12, 26400.92, 0.000, 0.000, 0.000, 13:15:08.489
36, 30624.53, 4842.39, 14991.11, -1956.69, 21330.45, 30699.88, 17850.55, 26323.94, 0.000, 0.000, 0.000, 13:15:08.489
37, 30650.59, 4893.69, 15038.54, -1921.24, 21384.47, 30731.48, 17891.16, 26346.98, 0.000, 0.000, 0.000, 13:15:08.489
38, 30603.74, 5000.17, 15115.59, -1817.53, 21468.92, 30785.35, 17994.05, 26427.18, 0.000, 0.000, 0.000, 13:15:08.489
39, 30564.80, 4959.81, 15078.04, -1843.55, 21425.04, 30759.75, 17959.25, 26411.27, 0.000, 0.000, 0.000, 13:15:08.489
40, 30599.18, 4846.15, 14993.53, -1953.63, 21332.73, 30696.57, 17846.37, 26326.51, 0.000, 0.000, 0.000, 13:15:08.490
41, 30633.65, 4870.13, 15018.99, -1944.47, 21363.91, 30711.29, 17860.96, 26326.46, 0.000, 0.000, 0.000, 13:15:08.490
42, 30603.54, 4982.11, 15101.71, -1838.30, 21455.62, 30769.37, 17968.34, 26404.47, 0.000, 0.000, 0.000, 13:15:08.490
43, 30558.39, 4972.41, 15085.19, -1834.74, 21435.30, 30761.19, 17964.12, 26408.56, 0.000, 0.000, 0.000, 13:15:08.490
44, 30586.66, 4853.28, 14995.09, -1947.40, 21336.62, 30697.71, 17847.91, 26322.66, 0.180, 0.054, 0.964, 13:15:08.490
45, 30628.71, 4849.23, 14998.94, -1965.08, 21343.99, 30697.86, 17837.12, 26306.57, 0.000, 0.000, 0.000, 13:15:08.491
46, 30613.24, 4963.27, 15086.64, -1862.12, 21440.11, 30760.54, 17945.90, 26385.07, 0.000, 0.000, 0.000, 13:15:08.491
47, 30563.55, 4986.74, 15095.43, -1827.05, 21446.30, 30770.95, 17976.43, 26414.49, 0.000, 0.000, 0.000, 13:15:08.492
48, 30589.32, 4874.49, 15010.02, -1928.33, 21351.37, 30712.41, 17871.81, 26338.13, 0.000, 0.000, 0.000, 13:15:08.492
49, 30640.80, 4841.28, 14990.44, -1970.02, 21333.94, 30694.87, 17836.29, 26301.77, 0.000, 0.000, 0.000, 13:15:08.492
50, 30641.67, 4944.47, 15072.09, -1876.79, 21424.37, 30752.96, 17935.13, 26370.21, 0.000, 0.000, 0.000, 13:15:08.492
51, 30590.55, 4994.68, 15101.55, -1814.02, 21453.52, 30776.38, 17992.88, 26419.22, 0.000, 0.000, 0.000, 13:15:08.492
52, 30602.06, 4890.36, 15019.92, -1900.99, 21360.94, 30721.47, 17899.95, 26355.68, 0.000, 0.000, 0.000, 13:15:08.492
53, 30652.98, 4828.67, 14977.34, -1962.59, 21316.50, 30690.24, 17842.41, 26307.13, 0.180, 0.054, 0.966, 13:15:08.492
54, 30668.29, 4919.26, 15049.90, -1879.98, 21398.02, 30744.11, 17931.71, 26370.19, 0.000, 0.000, 0.000, 13:15:08.492
55, 30618.49, 4999.28, 15101.15, -1789.61, 21454.08, 30786.80, 18019.69, 26442.78, 0.000, 0.000, 0.000, 13:15:08.492
56, 30619.01, 4920.04, 15036.60, -1853.00, 21380.58, 30746.63, 17951.47, 26400.49, 0.000, 0.000, 0.000, 13:15:08.492
57, 30667.69, 4838.88, 14978.08, -1935.50, 21319.58, 30704.28, 17871.43, 26336.81, 0.000, 0.000, 0.000, 13:15:08.492
58, 30694.00, 4913.32, 15040.31, -1875.74, 21390.71, 30748.82, 17938.59, 26379.48, 0.000, 0.000, 0.000, 13:15:08.492
59, 30644.31, 5013.47, 15108.86, -1774.46, 21466.48, 30800.90, 18039.71, 26457.02, 0.000, 0.000, 0.000, 13:15:08.492
60, 30625.51, 4952.03, 15055.02, -1823.08, 21405.19, 30766.24, 17985.73, 26421.84, 0.000, 0.000, 0.000, 13:15:08.492
61, 30667.17, 4852.70, 14978.44, -1924.73, 21324.10, 30708.41, 17884.84, 26341.04, 0.000, 0.000, 0.000, 13:15:08.492
62, 30697.97, 4899.79, 15020.84, -1896.81, 21372.71, 30734.92, 17919.97, 26356.71, 0.000, 0.000, 0.000, 13:15:08.492
63, 30654.08, 5010.99, 15099.18, -1791.51, 21457.99, 30788.43, 18024.76, 26434.07, 0.178, 0.056, 0.964, 13:15:08.492
64, 30619.16, 4978.38, 15067.56, -1814.67, 21419.99, 30768.49, 17994.09, 26419.29, 0.000, 0.000, 0.000, 13:15:08.492
65, 30651.04, 4865.77, 14984.65, -1926.85, 21329.51, 30707.03, 17880.01, 26332.23, 0.000, 0.000, 0.000, 13:15:08.493
66, 30692.05, 4885.96, 15009.40, -1924.95, 21358.52, 30721.98, 17889.20, 26330.26, 0.000, 0.000, 0.000, 13:15:08.493
67, 30656.31, 5001.09, 15096.01, -1820.35, 21453.88, 30781.99, 17997.60, 26410.17, 0.000, 0.000, 0.000, 13:15:08.493
68, 30602.80, 4993.02, 15083.98, -1818.14, 21438.00, 30774.98, 17993.78, 26415.20, 0.000, 0.000, 0.000, 13:15:08.493
69, 30629.22, 4878.47, 14999.43, -1929.22, 21344.71, 30714.27, 17880.32, 26332.77, 0.000, 0.000, 0.000, 13:15:08.493
70, 30672.47, 4872.19, 15001.44, -1952.45, 21350.01, 30714.27, 17865.35, 26313.86, 0.000, 0.000, 0.000, 13:15:08.493
71, 30660.29, 4987.55, 15089.71, -1848.69, 21447.10, 30777.48, 17975.32, 26394.26, 0.000, 0.000, 0.000, 13:15:08.493
72, 30611.61, 5015.93, 15103.65, -1806.33, 21459.44, 30792.46, 18012.33, 26430.94, 0.000, 0.000, 0.000, 13:15:08.493
73, 30635.88, 4905.25, 15019.34, -1901.26, 21363.64, 30735.53, 17913.18, 26362.72, 0.176, 0.054, 0.970, 13:15:08.493
74, 30692.61, 4865.08, 14996.88, -1942.95, 21340.48, 30717.60, 17876.37, 26328.48, 0.000, 0.000, 0.000, 13:15:08.493
75, 30697.97, 4966.31, 15075.22, -1846.52, 21429.33, 30773.93, 17977.66, 26398.46, 0.000, 0.000, 0.000, 13:15:08.493
76, 30643.73, 5020.81, 15105.62, -1774.93, 21462.72, 30800.21, 18041.84, 26451.81, 0.000, 0.000, 0.000, 13:15:08.493
77, 30648.76, 4920.24, 15025.83, -1856.92, 21374.10, 30745.70, 17951.67, 26390.93, 0.000, 0.000, 0.000, 13:15:08.493
78, 30690.35, 4854.91, 14981.32, -1924.15, 21326.02, 30710.98, 17885.26, 26335.67, 0.000, 0.000, 0.000, 13:15:08.493
79, 30699.43, 4937.70, 15051.37, -1851.98, 21403.00, 30756.98, 17959.94, 26386.43, 0.000, 0.000, 0.000, 13:15:08.494
80, 30637.04, 5015.71, 15101.80, -1766.48, 21457.58, 30792.28, 18037.52, 26450.00, 0.000, 0.000, 0.000, 13:15:08.494
81, 30616.64, 4930.19, 15033.18, -1839.41, 21378.26, 30741.72, 17955.13, 26396.40, 0.000, 0.000, 0.000, 13:15:08.494
82, 30651.35, 4837.79, 14966.73, -1935.68, 21306.80, 30688.29, 17857.90, 26318.91, 0.000, 0.000, 0.000, 13:15:08.494
83, 30670.68, 4902.50, 15022.74, -1888.36, 21371.13, 30725.13, 17911.86, 26351.63, 0.176, 0.050, 0.970, 13:15:08.494
84, 30614.42, 5002.10, 15092.48, -1791.98, 21447.19, 30774.19, 18007.77, 26425.13, 0.000, 0.000, 0.000, 13:15:08.494
85, 30589.21, 4945.48, 15043.68, -1841.67, 21390.13, 30740.71, 17952.83, 26391.38, 0.000, 0.000, 0.000, 13:15:08.494
86, 30628.01, 4843.69, 14968.45, -1949.32, 21308.23, 30684.54, 17847.33, 26308.65, 0.000, 0.000, 0.000, 13:15:08.494
87, 30665.27, 4884.44, 15008.73, -1928.82, 21355.59, 30709.24, 17876.99, 26320.16, 0.000, 0.000, 0.000, 13:15:08.494
88, 30622.67, 4995.61, 15089.82, -1823.75, 21444.20, 30764.47, 17984.95, 26399.55, 0.000, 0.000, 0.000, 13:15:08.494
89, 30585.90, 4962.00, 15057.81, -1844.56, 21405.39, 30744.22, 17956.74, 26386.75, 0.000, 0.000, 0.000, 13:15:08.494
90, 30614.47, 4848.29, 14971.24, -1951.42, 21310.80, 30681.21, 17846.39, 26304.52, 0.000, 0.000, 0.000, 13:15:08.494
91, 30659.08, 4861.68, 14989.33, -1949.79, 21333.26, 30692.65, 17854.86, 26301.30, 0.000, 0.000, 0.000, 13:15:08.494
92, 30630.25, 4976.26, 15074.37, -1837.34, 21426.85, 30752.60, 17968.43, 26386.03, 0.172, 0.054, 0.970, 13:15:08.494
93, 30584.74, 4970.74, 15065.63, -1824.26, 21412.50, 30749.00, 17973.80, 26399.89, 0.000, 0.000, 0.000, 13:15:08.495
94, 30602.20, 4850.04, 14974.48, -1931.06, 21311.11, 30682.75, 17860.83, 26319.80, 0.000, 0.000, 0.000, 13:15:08.495
95, 30641.16, 4831.11, 14967.49, -1959.44, 21306.22, 30673.12, 17836.33, 26293.68, 0.000, 0.000, 0.000, 13:15:08.495
96, 30620.79, 4940.50, 15050.93, -1857.36, 21398.24, 30728.82, 17940.49, 26368.91, 0.000, 0.000, 0.000, 13:15:08.495
97, 30562.28, 4967.09, 15063.76, -1817.87, 21408.37, 30739.71, 17972.50, 26401.97, 0.000, 0.000, 0.000, 13:15:08.495
98, 30573.45, 4855.11, 14977.10, -1918.00, 21311.25, 30676.00, 17865.48, 26327.98, 0.000, 0.000, 0.000, 13:15:08.495
99, 30621.40, 4809.00, 14948.62, -1972.23, 21281.95, 30650.19, 17814.54, 26282.43, 0.000, 0.000, 0.000, 13:15:08.495
100, 30619.32, 4907.79, 15026.94, -1884.30, 21368.69, 30702.45, 17907.14, 26346.13, 0.000, 0.000, 0.000, 13:15:08.495
101, 30560.87, 4965.57, 15062.95, -1816.33, 21406.09, 30728.84, 17969.64, 26399.40, 0.000, 0.000, 0.000, 13:15:08.495
102, 30566.46, 4871.41, 14988.39, -1897.62, 21321.55, 30676.65, 17883.12, 26340.44, 0.178, 0.050, 0.972, 13:15:08.495
103, 30615.68, 4802.67, 14940.06, -1969.99, 21271.55, 30638.96, 17813.98, 26281.18, 0.000, 0.000, 0.000, 13:15:08.495
104, 30635.88, 4887.97, 15010.11, -1895.92, 21350.92, 30688.45, 17893.04, 26333.77, 0.000, 0.000, 0.000, 13:15:08.962
105, 30584.12, 4973.60, 15068.67, -1803.32, 21413.78, 30732.62, 17981.78, 26404.76, 0.000, 0.000, 0.000, 13:15:08.962
106, 30574.30, 4897.69, 15007.50, -1864.90, 21343.21, 30692.32, 17912.64, 26360.98, 0.000, 0.000, 0.000, 13:15:08.962
107, 30614.98, 4808.15, 14942.32, -1956.43, 21274.52, 30644.58, 17821.71, 26288.51, 0.000, 0.000, 0.000, 13:15:08.962
108, 30641.07, 4871.92, 14999.05, -1906.87, 21338.65, 30683.02, 17877.80, 26323.09, 0.000, 0.000, 0.000, 13:15:08.963
109, 30590.11, 4975.74, 15073.48, -1801.98, 21418.76, 30737.65, 17980.46, 26403.24, 0.000, 0.000, 0.000, 13:15:08.963
110, 30563.80, 4919.31, 15026.92, -1842.92, 21363.30, 30705.69, 17932.33, 26375.55, 0.000, 0.000, 0.000, 13:15:08.963
111, 30596.63, 4811.91, 14949.32, -1946.30, 21277.43, 30647.37, 17827.48, 26295.78, 0.000, 0.000, 0.000, 13:15:08.963
112, 30632.19, 4846.71, 14986.93, -1926.09, 21319.45, 30671.76, 17855.04, 26307.69, 0.178, 0.054, 0.970, 13:15:08.963
113, 30586.80, 4958.82, 15069.50, -1816.84, 21410.24, 30729.15, 17965.82, 26391.24, 0.000, 0.000, 0.000, 13:15:08.963
114, 30551.46, 4930.01, 15042.14, -1833.04, 21375.84, 30713.49, 17943.94, 26384.76, 0.000, 0.000, 0.000, 13:15:08.963
115, 30582.77, 4815.75, 14955.46, -1942.43, 21281.47, 30650.43, 17832.69, 26301.74, 0.000, 0.000, 0.000, 13:15:08.963
116, 30610.78, 4830.61, 14969.12, -1939.73, 21298.64, 30651.71, 17841.74, 26297.61, 0.000, 0.000, 0.000, 13:15:08.963
117, 30531.90, 4971.23, 15060.65, -1804.48, 21399.02, 30709.24, 17980.21, 26397.81, 0.000, 0.000, 0.000, 13:15:08.963
118, 30517.57, 4959.09, 15062.35, -1808.97, 21390.08, 30720.19, 17970.06, 26400.52, 0.000, 0.000, 0.000, 13:15:08.963
119, 30563.62, 4829.05, 14971.33, -1933.58, 21290.53, 30657.99, 17840.89, 26307.02, 0.000, 0.000, 0.000, 13:15:08.963
120, 30637.04, 4789.38, 14954.90, -1987.11, 21279.60, 30646.70, 17791.96, 26261.53, 0.000, 0.000, 0.000, 13:15:08.964
121, 30602.20, 4905.38, 15032.89, -1877.73, 21369.14, 30690.29, 17903.26, 26339.25, 0.000, 0.000, 0.000, 13:15:08.964
122, 30521.55, 4955.36, 15055.58, -1813.71, 21389.30, 30704.54, 17960.03, 26389.72, 0.178, 0.056, 0.970, 13:15:08.964
123, 30546.45, 4843.00, 14975.18, -1913.91, 21298.17, 30655.77, 17855.45, 26318.08, 0.000, 0.000, 0.000, 13:15:08.964
124, 30627.43, 4777.19, 14944.33, -1988.70, 21267.35, 30636.22, 17787.14, 26260.24, 0.000, 0.000, 0.000, 13:15:08.964
125, 30612.70, 4878.89, 15020.68, -1897.84, 21353.22, 30682.22, 17884.99, 26327.25, 0.000, 0.000, 0.000, 13:15:08.964
126, 30522.38, 4960.08, 15065.61, -1808.59, 21399.38, 30713.33, 17971.47, 26398.39, 0.000, 0.000, 0.000, 13:15:08.964
127, 30524.21, 4867.07, 14995.41, -1891.25, 21318.29, 30670.62, 17884.77, 26341.28, 0.000, 0.000, 0.000, 13:15:08.964
128, 30605.62, 4774.91, 14943.33, -1991.03, 21264.62, 30637.91, 17791.38, 26266.21, 0.000, 0.000, 0.000, 13:15:08.964
129, 30617.24, 4853.75, 15009.15, -1925.16, 21338.58, 30676.49, 17865.64, 26314.78, 0.000, 0.000, 0.000, 13:15:08.964
130, 30526.63, 4954.33, 15071.31, -1818.58, 21403.02, 30714.27, 17970.18, 26395.76, 0.000, 0.000, 0.000, 13:15:08.964
131, 30508.03, 4881.42, 15013.96, -1878.91, 21334.49, 30676.74, 17903.68, 26354.74, 0.000, 0.000, 0.000, 13:15:08.964
132, 30587.76, 4771.38, 14947.33, -1995.05, 21262.45, 30636.17, 17790.51, 26268.42, 0.182, 0.054, 0.960, 13:15:08.964
133, 30624.37, 4844.72, 14997.51, -1956.72, 21315.14, 30664.56, 17841.65, 26298.64, 0.000, 0.000, 0.000, 13:15:08.964
134, 30539.05, 4980.19, 15073.43, -1829.09, 21394.84, 30709.64, 17970.60, 26394.06, 0.000, 0.000, 0.000, 13:15:08.964
135, 30501.32, 4933.59, 15028.46, -1859.96, 21342.21, 30680.92, 17930.86, 26370.34, 0.000, 0.000, 0.000, 13:15:08.965
136, 30570.77, 4807.77, 14943.95, -1984.12, 21251.66, 30627.34, 17804.08, 26273.69, 0.000, 0.000, 0.000, 13:15:08.965
137, 30622.87, 4827.95, 14968.58, -1976.59, 21283.38, 30640.26, 17816.06, 26272.71, 0.000, 0.000, 0.000, 13:15:08.965
138, 30544.53, 4956.72, 15048.76, -1846.46, 21371.35, 30685.01, 17943.91, 26365.16, 0.000, 0.000, 0.000, 13:15:08.965
139, 30489.34, 4940.76, 15025.54, -1846.41, 21340.69, 30668.89, 17935.40, 26367.32, 0.000, 0.000, 0.000, 13:15:08.965
140, 30547.21, 4811.95, 14938.03, -1971.11, 21245.13, 30614.09, 17807.97, 26273.38, 0.000, 0.000, 0.000, 13:15:08.965
141, 30615.50, 4803.86, 14945.65, -1994.83, 21259.06, 30619.81, 17790.07, 26252.99, 0.184, 0.050, 0.964, 13:15:08.965
142, 30556.29, 4933.32, 15030.94, -1869.77, 21354.43, 30669.03, 17915.97, 26345.20, 0.000, 0.000, 0.000, 13:15:08.965
143, 30486.68, 4953.44, 15034.86, -1835.10, 21352.53, 30672.40, 17943.06, 26375.95, 0.000, 0.000, 0.000, 13:15:08.965
144, 30524.70, 4829.27, 14951.84, -1949.99, 21258.79, 30621.04, 17825.83, 26294.17, 0.000, 0.000, 0.000, 13:15:08.965
145, 30598.78, 4785.75, 14937.74, -2007.16, 21246.47, 30611.58, 17776.63, 26250.65, 0.000, 0.000, 0.000, 13:15:08.966
146, 30560.47, 4902.88, 15021.36, -1899.50, 21340.39, 30660.98, 17889.46, 26331.27, 0.000, 0.000, 0.000, 13:15:08.966
147, 30469.88, 4960.77, 15048.87, -1831.43, 21365.29, 30679.06, 17953.57, 26387.98, 0.000, 0.000, 0.000, 13:15:08.966
148, 30484.89, 4862.13, 14974.51, -1927.64, 21276.83, 30633.36, 17857.08, 26322.84, 0.000, 0.000, 0.000, 13:15:08.966
149, 30654.50, 4758.87, 14933.58, -2058.13, 21236.41, 30627.39, 17739.57, 26230.42, 0.000, 0.000, 0.000, 13:15:08.966
150, 30593.03, 4882.78, 15003.90, -1944.15, 21315.63, 30639.79, 17858.78, 26310.26, 0.000, 0.000, 0.000, 13:15:08.966
151, 30429.57, 5014.57, 15067.71, -1804.64, 21374.62, 30674.48, 17995.75, 26417.77, 0.180, 0.052, 0.968, 13:15:08.966
152, 30456.93, 4917.09, 15005.46, -1896.01, 21297.28, 30647.53, 17901.13, 26354.54, 0.000, 0.000, 0.000, 13:15:08.966
153, 30635.21, 4777.82, 14942.43, -2051.96, 21237.84, 30633.53, 17752.29, 26239.40, 0.000, 0.000, 0.000, 13:15:08.966
154, 30630.07, 4854.35, 14989.21, -1983.76, 21296.83, 30636.87, 17823.26, 26280.51, 0.000, 0.000, 0.000, 13:15:08.966
155, 30438.29, 5015.42, 15064.09, -1807.23, 21369.70, 30663.66, 17991.72, 26409.10, 0.000, 0.000, 0.000, 13:15:08.966
156, 30436.62, 4937.88, 15009.51, -1868.61, 21302.42, 30641.74, 17922.50, 26367.01, 0.000, 0.000, 0.000, 13:15:08.966
157, 30599.63, 4781.73, 14930.21, -2033.27, 21224.23, 30614.83, 17761.66, 26245.33, 0.000, 0.000, 0.000, 13:15:08.966
158, 30658.75, 4814.32, 14959.60, -2015.26, 21266.81, 30621.46, 17785.71, 26252.48, 0.000, 0.000, 0.000, 13:15:08.966
159, 30461.40, 4999.35, 15045.70, -1818.02, 21356.29, 30649.45, 17977.96, 26394.86, 0.000, 0.000, 0.000, 13:15:08.967
160, 30433.64, 4962.38, 15016.24, -1839.91, 21312.95, 30643.71, 17949.95, 26384.20, 0.000, 0.000, 0.000, 13:15:08.967
161, 30574.93, 4810.12, 14935.39, -1995.38, 21226.94, 30616.50, 17796.08, 26271.59, 0.182, 0.052, 0.968, 13:15:08.967
162, 30689.50, 4794.90, 14945.96, -2027.68, 21250.50, 30624.77, 17771.51, 26242.91, 0.000, 0.000, 0.000, 13:15:08.967
163, 30501.05, 4983.46, 15034.79, -1831.73, 21346.36, 30645.69, 17964.28, 26382.37, 0.000, 0.000, 0.000, 13:15:08.967
164, 30432.70, 4988.40, 15030.27, -1811.09, 21329.06, 30651.95, 17977.71, 26402.86, 0.000, 0.000, 0.000, 13:15:08.967
165, 30538.90, 4836.54, 14944.44, -1961.34, 21234.65, 30615.32, 17825.58, 26291.89, 0.000, 0.000, 0.000, 13:15:08.967
166, 30687.65, 4775.74, 14932.69, -2040.18, 21232.26, 30617.89, 17753.10, 26228.61, 0.000, 0.000, 0.000, 13:15:08.967
167, 30526.54, 4945.57, 15013.69, -1866.12, 21321.60, 30629.96, 17924.18, 26348.71, 0.000, 0.000, 0.000, 13:15:08.967
168, 30417.62, 4993.18, 15031.59, -1801.37, 21328.95, 30644.71, 17980.28, 26402.55, 0.000, 0.000, 0.000, 13:15:08.967
169, 30494.04, 4850.17, 14949.72, -1936.80, 21234.71, 30607.34, 17841.12, 26305.95, 0.000, 0.000, 0.000, 13:15:08.967
170, 30668.22, 4751.18, 14919.95, -2052.67, 21211.78, 30606.35, 17731.95, 26219.47, 0.000, 0.000, 0.000, 13:15:08.967
171, 30553.02, 4899.37, 14997.06, -1902.83, 21298.15, 30617.06, 17882.96, 26323.18, 0.180, 0.054, 0.968, 13:15:08.967
172, 30409.88, 4992.08, 15039.42, -1791.31, 21334.54, 30645.25, 17988.75, 26411.13, 0.000, 0.000, 0.000, 13:15:08.967
173, 30463.06, 4870.91, 14966.15, -1903.23, 21248.04, 30615.36, 17875.38, 26335.52, 0.000, 0.000, 0.000, 13:15:08.968
174, 30650.63, 4746.93, 14917.20, -2044.98, 21204.29, 30610.24, 17743.93, 26233.41, 0.000, 0.000, 0.000, 13:15:08.968
175, 30599.18, 4863.27, 14979.22, -1934.07, 21280.49, 30620.77, 17858.26, 26308.25, 0.000, 0.000, 0.000, 13:15:08.968
176, 30431.65, 5001.00, 15043.42, -1780.58, 21341.58, 30651.86, 18006.21, 26423.94, 0.000, 0.000, 0.000, 13:15:08.968
177, 30455.17, 4904.67, 14980.61, -1865.95, 21266.81, 30625.42, 17917.07, 26365.02, 0.000, 0.000, 0.000, 13:15:08.968
178, 30630.63, 4760.38, 14914.74, -2025.34, 21202.82, 30608.66, 17764.12, 26246.76, 0.000, 0.000, 0.000, 13:15:08.968
179, 30642.97, 4831.62, 14959.82, -1966.44, 21261.49, 30615.70, 17827.26, 26282.39, 0.000, 0.000, 0.000, 13:15:08.968
180, 30455.08, 4999.93, 15037.76, -1786.06, 21341.82, 30648.38, 18001.49, 26413.93, 0.180, 0.056, 0.956, 13:15:08.968
181, 30448.26, 4936.67, 14990.93, -1838.50, 21283.02, 30632.84, 17943.09, 26380.67, 0.000, 0.000, 0.000, 13:15:08.968
182, 30606.85, 4787.05, 14915.09, -1999.72, 21206.93, 30611.50, 17785.69, 26263.25, 0.000, 0.000, 0.000, 13:15:08.968
183, 30674.44, 4806.61, 14943.39, -1996.70, 21246.52, 30618.18, 17795.81, 26258.83, 0.000, 0.000, 0.000, 13:15:08.968
184, 30478.14, 4988.42, 15030.25, -1805.55, 21336.39, 30643.19, 17982.85, 26395.84, 0.000, 0.000, 0.000, 13:15:08.968
185, 30432.53, 4957.91, 15003.94, -1822.07, 21296.12, 30633.62, 17959.38, 26389.88, 0.000, 0.000, 0.000, 13:15:08.968
186, 30559.88, 4803.97, 14921.80, -1979.60, 21208.92, 30600.99, 17803.23, 26275.95, 0.000, 0.000, 0.000, 13:15:08.968
187, 30679.91, 4777.89, 14930.23, -2026.65, 21229.06, 30608.70, 17764.85, 26237.57, 0.000, 0.000, 0.000, 13:15:08.968
188, 30493.52, 4956.41, 15015.88, -1841.90, 21321.64, 30626.43, 17947.24, 26368.91, 0.000, 0.000, 0.000, 13:15:08.969
189, 30408.94, 4967.54, 15012.30, -1815.99, 21305.77, 30629.60, 17966.85, 26395.40, 0.000, 0.000, 0.000, 13:15:08.969
190, 30507.85, 4820.58, 14929.62, -1962.66, 21214.31, 30597.10, 17821.45, 26291.98, 0.180, 0.058, 0.966, 13:15:08.969
191, 30667.78, 4753.72, 14916.62, -2051.91, 21211.02, 30603.36, 17742.41, 26224.90, 0.000, 0.000, 0.000, 13:15:08.969
192, 30517.64, 4922.23, 14998.42, -1882.51, 21302.51, 30617.40, 17910.99, 26342.56, 0.000, 0.000, 0.000, 13:15:08.969
193, 30401.03, 4978.38, 15019.81, -1810.63, 21314.15, 30632.55, 17974.85, 26401.54, 0.000, 0.000, 0.000, 13:15:08.969
194, 30474.41, 4841.72, 14939.08, -1940.67, 21221.33, 30593.75, 17842.01, 26308.09, 0.000, 0.000, 0.000, 13:15:08.969
195, 30655.73, 4739.89, 14905.93, -2060.54, 21194.84, 30590.33, 17729.98, 26216.47, 0.000, 0.000, 0.000, 13:15:08.969
196, 30543.39, 4885.60, 14977.12, -1913.02, 21278.17, 30595.92, 17877.01, 26314.10, 0.000, 0.000, 0.000, 13:15:08.969
197, 30369.58, 4999.88, 15026.59, -1774.08, 21321.69, 30624.21, 18005.02, 26417.59, 0.000, 0.000, 0.000, 13:15:08.970
198, 30482.99, 4865.37, 14959.31, -1904.75, 21238.31, 30613.17, 17871.16, 26328.59, 0.000, 0.000, 0.000, 13:15:08.970
199, 30679.13, 4729.67, 14899.90, -2053.48, 21189.77, 30598.42, 17728.33, 26215.09, 0.000, 0.000, 0.000, 13:15:08.970
200, 30620.46, 4842.37, 14956.96, -1942.08, 21260.89, 30600.05, 17840.29, 26286.23, 0.180, 0.060, 0.970, 13:15:08.970
201, 30435.92, 4982.49, 15019.68, -1781.59, 21324.12, 30629.55, 17993.00, 26404.47, 0.000, 0.000, 0.000, 13:15:08.970
202, 30448.28, 4888.53, 14958.95, -1862.28, 21248.44, 30603.76, 17906.99, 26348.88, 0.000, 0.000, 0.000, 13:15:08.970
203, 30616.21, 4737.43, 14891.65, -2024.60, 21181.65, 30588.09, 17748.83, 26228.94, 0.000, 0.000, 0.000, 13:15:08.970
204, 30629.89, 4793.85, 14933.25, -1979.07, 21233.82, 30593.26, 17798.00, 26254.65, 0.000, 0.000, 0.000, 13:15:08.970
205, 30432.32, 4963.79, 15013.51, -1797.21, 21316.81, 30624.79, 17974.02, 26388.31, 0.000, 0.000, 0.000, 13:15:08.971
206, 30421.26, 4900.69, 14971.20, -1851.44, 21260.89, 30610.49, 17914.50, 26355.48, 0.000, 0.000, 0.000, 13:15:08.971
207, 30574.84, 4745.10, 14893.17, -2018.90, 21183.04, 30586.66, 17751.55, 26232.81, 0.000, 0.000, 0.000, 13:15:08.971
208, 30650.03, 4761.01, 14917.20, -2024.20, 21218.58, 30591.20, 17754.46, 26223.29, 0.000, 0.000, 0.000, 13:15:08.971
209, 30440.08, 4946.96, 15002.24, -1826.63, 21312.10, 30615.72, 17947.58, 26365.51, 0.000, 0.000, 0.000, 13:15:08.971
210, 30406.98, 4916.33, 14980.23, -1843.26, 21276.98, 30614.96, 17924.38, 26361.91, 0.178, 0.056, 0.970, 13:15:08.971
211, 30522.98, 4762.33, 14893.46, -1997.22, 21187.46, 30579.42, 17769.30, 26249.57, 0.000, 0.000, 0.000, 13:15:08.971
212, 30644.49, 4728.65, 14896.57, -2050.06, 21201.37, 30581.41, 17723.99, 26207.15, 0.000, 0.000, 0.000, 13:15:08.971
213, 30470.37, 4909.74, 14985.03, -1862.21, 21295.13, 30599.02, 17908.37, 26341.51, 0.000, 0.000, 0.000, 13:15:08.971
214, 30365.58, 4931.44, 14983.87, -1820.91, 21282.28, 30601.41, 17941.52, 26378.39, 0.000, 0.000, 0.000, 13:15:08.971
215, 30475.91, 4778.15, 14901.37, -1968.45, 21188.96, 30571.02, 17791.83, 26273.27, 0.000, 0.000, 0.000, 13:15:08.971
216, 30643.14, 4703.01, 14883.98, -2060.70, 21181.70, 30572.65, 17708.91, 26202.64, 0.000, 0.000, 0.000, 13:15:08.972
217, 30501.68, 4870.36, 14965.25, -1888.74, 21273.90, 30587.53, 17880.90, 26320.88, 0.000, 0.000, 0.000, 13:15:08.972
218, 30396.38, 4935.89, 14993.64, -1807.79, 21296.81, 30615.63, 17956.56, 26387.98, 0.000, 0.000, 0.000, 13:15:08.972
219, 30468.64, 4806.07, 14915.16, -1934.90, 21208.21, 30582.35, 17830.19, 26299.91, 0.000, 0.000, 0.000, 13:15:08.972
220, 30651.48, 4700.95, 14879.40, -2059.98, 21180.91, 30582.91, 17714.61, 26206.50, 0.180, 0.052, 0.964, 13:15:08.972
221, 30566.54, 4837.36, 14952.06, -1926.97, 21265.02, 30594.15, 17848.56, 26293.94, 0.000, 0.000, 0.000, 13:15:08.972
222, 30432.14, 4942.84, 15002.22, -1808.01, 21311.67, 30625.15, 17961.26, 26384.38, 0.000, 0.000, 0.000, 13:15:08.972
223, 30444.48, 4840.47, 14929.67, -1897.57, 21228.86, 30583.18, 17865.21, 26318.48, 0.000, 0.000, 0.000, 13:15:08.972
224, 30649.78, 4708.95, 14881.01, -2057.21, 21180.04, 30584.23, 17715.43, 26204.33, 0.000, 0.000, 0.000, 13:15:09.443
225, 30604.66, 4814.43, 14935.28, -1965.63, 21244.73, 30580.29, 17811.72, 26263.03, 0.000, 0.000, 0.000, 13:15:09.443
226, 30429.69, 4959.72, 15005.49, -1810.02, 21311.72, 30614.65, 17961.46, 26380.64, 0.000, 0.000, 0.000, 13:15:09.443
227, 30422.02, 4877.40, 14945.92, -1882.17, 21238.11, 30584.36, 17883.43, 26331.65, 0.000, 0.000, 0.000, 13:15:09.443
228, 30603.11, 4727.15, 14879.53, -2050.57, 21171.08, 30569.90, 17721.78, 26211.06, 0.000, 0.000, 0.000, 13:15:09.443
229, 30610.80, 4788.73, 14918.40, -2001.80, 21223.56, 30572.85, 17776.10, 26240.21, 0.178, 0.048, 0.958, 13:15:09.443
230, 30412.30, 4959.20, 15001.84, -1817.51, 21306.67, 30603.96, 17954.91, 26374.90, 0.000, 0.000, 0.000, 13:15:09.443
231, 30411.89, 4895.77, 14960.87, -1867.76, 21248.75, 30590.19, 17898.67, 26343.88, 0.000, 0.000, 0.000, 13:15:09.443
232, 30551.21, 4741.30, 14879.56, -2027.68, 21164.26, 30557.25, 17741.43, 26227.02, 0.000, 0.000, 0.000, 13:15:09.443
233, 30628.57, 4753.99, 14901.21, -2031.97, 21198.86, 30565.41, 17746.14, 26219.38, 0.000, 0.000, 0.000, 13:15:09.444
234, 30453.78, 4937.08, 14993.50, -1840.87, 21295.74, 30600.41, 17935.66, 26358.76, 0.000, 0.000, 0.000, 13:15:09.444
235, 30388.96, 4923.37, 14974.01, -1836.91, 21263.19, 30594.55, 17933.68, 26369.74, 0.000, 0.000, 0.000, 13:15:09.444
236, 30528.17, 4768.14, 14895.13, -1995.09, 21177.14, 30570.93, 17778.26, 26259.19, 0.000, 0.000, 0.000, 13:15:09.444
237, 30670.68, 4730.30, 14893.77, -2052.74, 21188.13, 30573.50, 17729.54, 26212.76, 0.000, 0.000, 0.000, 13:15:09.444
238, 30485.74, 4921.74, 14982.37, -1854.10, 21284.58, 30592.09, 17925.38, 26352.33, 0.000, 0.000, 0.000, 13:15:09.444
239, 30399.98, 4954.47, 14990.00, -1808.35, 21281.72, 30607.92, 17964.77, 26393.56, 0.176, 0.046, 0.960, 13:15:09.444
240, 30500.50, 4811.41, 14908.68, -1952.02, 21190.71, 30576.25, 17822.32, 26291.13, 0.000, 0.000, 0.000, 13:15:09.444
241, 30679.18, 4734.81, 14892.05, -2052.65, 21183.84, 30584.76, 17732.26, 26216.40, 0.000, 0.000, 0.000, 13:15:09.444
242, 30547.90, 4894.67, 14970.95, -1892.50, 21272.94, 30597.12, 17892.35, 26326.87, 0.000, 0.000, 0.000, 13:15:09.444
243, 30392.20, 4973.11, 14997.55, -1793.59, 21293.63, 30611.70, 17982.89, 26404.41, 0.000, 0.000, 0.000, 13:15:09.444
244, 30480.16, 4833.74, 14922.34, -1927.37, 21206.64, 30588.92, 17846.73, 26310.97, 0.000, 0.000, 0.000, 13:15:09.444
245, 30662.77, 4715.08, 14877.34, -2063.98, 21168.89, 30579.82, 17718.05, 26207.75, 0.000, 0.000, 0.000, 13:15:09.444
246, 30565.85, 4847.96, 14944.96, -1934.01, 21247.08, 30586.08, 17847.22, 26293.36, 0.000, 0.000, 0.000, 13:15:09.444
247, 30391.31, 4965.64, 14996.77, -1798.76, 21292.45, 30608.88, 17973.44, 26394.17, 0.000, 0.000, 0.000, 13:15:09.444
248, 30432.23, 4855.09, 14928.91, -1900.57, 21211.56, 30580.18, 17866.71, 26323.56, 0.000, 0.000, 0.000, 13:15:09.445
249, 30687.98, 4693.44, 14876.11, -2087.45, 21161.22, 30586.64, 17689.57, 26191.19, 0.184, 0.054, 0.962, 13:15:09.445
250, 30664.78, 4776.86, 14918.31, -2012.60, 21219.31, 30573.38, 17767.13, 26234.87, 0.000, 0.000, 0.000, 13:15:09.445
251, 30431.18, 4948.36, 14985.59, -1822.72, 21287.04, 30591.13, 17950.78, 26374.05, 0.000, 0.000, 0.000, 13:15:09.445
252, 30416.72, 4875.61, 14932.55, -1884.59, 21218.31, 30568.83, 17884.30, 26334.58, 0.000, 0.000, 0.000, 13:15:09.445
253, 30587.13, 4729.36, 14865.18, -2046.01, 21150.45, 30552.80, 17728.98, 26218.33, 0.000, 0.000, 0.000, 13:15:09.445
254, 30621.33, 4782.51, 14904.86, -2007.79, 21203.27, 30562.34, 17774.53, 26242.38, 0.000, 0.000, 0.000, 13:15:09.445
255, 30431.32, 4957.93, 14989.37, -1821.29, 21288.22, 30595.45, 17958.49, 26381.49, 0.000, 0.000, 0.000, 13:15:09.445
0, 30404.47, 4910.92, 14952.11, -1855.87, 21237.64, 30584.72, 17919.46, 26364.51, 0.000, 0.000, 0.000, 13:15:09.445
1, 30557.94, 4754.84, 14874.88, -2020.13, 21156.28, 30562.28, 17760.00, 26246.49, 0.000, 0.000, 0.000, 13:15:09.445
2, 30640.87, 4766.29, 14896.50, -2025.87, 21190.86, 30569.34, 17761.68, 26237.17, 0.000, 0.000, 0.000, 13:15:09.445
3, 30464.91, 4952.23, 14992.52, -1833.27, 21291.09, 30604.10, 17950.86, 26376.87, 0.178, 0.052, 0.970, 13:15:09.445
4, 30421.48, 4934.50, 14976.63, -1834.34, 21263.41, 30606.20, 17942.57, 26381.41, 0.000, 0.000, 0.000, 13:15:09.445
5, 30539.86, 4781.91, 14893.95, -1983.43, 21176.24, 30576.98, 17790.78, 26271.77, 0.000, 0.000, 0.000, 13:15:09.445
6, 30674.71, 4737.81, 14891.60, -2043.66, 21185.97, 30580.56, 17735.57, 26221.19, 0.000, 0.000, 0.000, 13:15:09.445
7, 30503.09, 4918.03, 14977.39, -1859.89, 21279.89, 30597.01, 17914.32, 26347.07, 0.000, 0.000, 0.000, 13:15:09.445
8, 30401.72, 4949.64, 14983.42, -1814.34, 21275.69, 30605.26, 17950.08, 26382.72, 0.000, 0.000, 0.000, 13:15:09.446
9, 30483.89, 4802.18, 14897.01, -1958.71, 21179.08, 30566.12, 17801.35, 26274.92, 0.000, 0.000, 0.000, 13:15:09.446
10, 30651.30, 4714.23, 14869.21, -2065.70, 21160.20, 30561.83, 17701.46, 26191.42, 0.000, 0.000, 0.000, 13:15:09.446
11, 30512.77, 4872.84, 14945.58, -1907.18, 21247.37, 30569.12, 17858.69, 26299.24, 0.000, 0.000, 0.000, 13:15:09.446
12, 30382.55, 4947.31, 14976.56, -1818.02, 21269.96, 30587.98, 17939.22, 26370.34, 0.176, 0.048, 0.968, 13:15:09.446
13, 30436.17, 4821.23, 14899.69, -1939.26, 21180.09, 30551.19, 17815.88, 26284.29, 0.000, 0.000, 0.000, 13:15:09.446
14, 30584.07, 4727.04, 14863.66, -2050.91, 21146.47, 30536.75, 17712.77, 26199.35, 0.000, 0.000, 0.000, 13:15:09.446
15, 30538.36, 4848.03, 14941.36, -1939.73, 21236.35, 30571.22, 17829.11, 26277.20, 0.000, 0.000, 0.000, 13:15:09.446
16, 30443.05, 4935.98, 14990.73, -1843.77, 21285.74, 30606.33, 17923.60, 26354.92, 0.000, 0.000, 0.000, 13:15:09.446
17, 30462.50, 4836.00, 14923.23, -1932.33, 21208.97, 30574.68, 17833.29, 26294.03, 0.000, 0.000, 0.000, 13:15:09.446
18, 30567.66, 4735.71, 14870.19, -2042.30, 21155.66, 30546.99, 17730.25, 26211.46, 0.000, 0.000, 0.000, 13:15:09.446
19, 30554.34, 4828.29, 14934.41, -1960.61, 21231.32, 30581.50, 17819.55, 26269.80, 0.000, 0.000, 0.000, 13:15:09.446
20, 30460.80, 4939.04, 14998.56, -1841.27, 21296.83, 30622.74, 17936.25, 26362.99, 0.000, 0.000, 0.000, 13:15:09.446
21, 30453.89, 4861.93, 14941.07, -1904.30, 21228.14, 30593.21, 17867.22, 26322.17, 0.000, 0.000, 0.000, 13:15:09.447
22, 30557.43, 4742.28, 14873.21, -2030.92, 21156.82, 30557.47, 17744.40, 26230.87, 0.170, 0.050, 0.970, 13:15:09.447
23, 30572.42, 4807.95, 14921.53, -1978.93, 21216.59, 30582.04, 17802.78, 26267.99, 0.000, 0.000, 0.000, 13:15:09.447
24, 30477.88, 4937.21, 15000.21, -1844.18, 21301.05, 30629.85, 17935.93, 26370.12, 0.000, 0.000, 0.000, 13:15:09.447
25, 30452.04, 4889.00, 14959.53, -1877.46, 21250.65, 30607.23, 17896.39, 26349.87, 0.000, 0.000, 0.000, 13:15:09.447
26, 30548.66, 4745.99, 14878.48, -2013.71, 21165.78, 30559.79, 17757.90, 26245.19, 0.000, 0.000, 0.000, 13:15:09.447
27, 30590.13, 4733.65, 14902.65, -1998.47, 21213.01, 30573.61, 17764.34, 26238.71, 0.000, 0.000, 0.000, 13:15:09.447
28, 30505.08, 4860.25, 14988.03, -1860.00, 21310.15, 30623.95, 17897.33, 26336.01, 0.000, 0.000, 0.000, 13:15:09.447
29, 30453.16, 4843.38, 14966.55, -1860.54, 21280.67, 30610.78, 17887.21, 26338.02, 0.000, 0.000, 0.000, 13:15:09.447
30, 30526.63, 4712.46, 14882.26, -1987.27, 21189.19, 30562.70, 17755.58, 26241.06, 0.000, 0.000, 0.000, 13:15:09.447
31, 30596.92, 4703.34, 14885.88, -2011.23, 21199.82, 30562.10, 17736.89, 26215.13, 0.000, 0.000, 0.000, 13:15:09.447
32, 30523.23, 4840.99, 14972.67, -1877.88, 21296.58, 30610.29, 17871.34, 26311.11, 0.172, 0.052, 0.968, 13:15:09.447
33, 30452.84, 4857.84, 14972.58, -1846.05, 21291.04, 30611.88, 17895.59, 26339.47, 0.000, 0.000, 0.000, 13:15:09.447
34, 30496.61, 4729.90, 14886.80, -1967.15, 21195.82, 30563.53, 17771.07, 26250.80, 0.000, 0.000, 0.000, 13:15:09.448
35, 30581.66, 4683.79, 14869.34, -2027.82, 21181.50, 30551.88, 17717.31, 26202.68, 0.000, 0.000, 0.000, 13:15:09.448
36, 30528.79, 4811.91, 14954.08, -1907.41, 21276.69, 30598.35, 17841.74, 26291.89, 0.000, 0.000, 0.000, 13:15:09.448
37, 30449.09, 4862.93, 14979.80, -1844.94, 21299.04, 30615.81, 17899.52, 26344.64, 0.000, 0.000, 0.000, 13:15:09.448
38, 30474.66, 4752.41, 14902.94, -1948.45, 21212.01, 30570.79, 17793.33, 26272.73, 0.000, 0.000, 0.000, 13:15:09.448
39, 30573.68, 4680.43, 14867.82, -2036.60, 21177.00, 30548.93, 17712.35, 26206.84, 0.000, 0.000, 0.000, 13:15:09.448
40, 30548.66, 4796.91, 14947.08, -1934.81, 21267.91, 30595.92, 17820.89, 26280.98, 0.000, 0.000, 0.000, 13:15:09.448
41, 30464.69, 4883.70, 14997.06, -1840.78, 21317.80, 30631.54, 17912.24, 26355.84, 0.000, 0.000, 0.000, 13:15:09.449
42, 30470.32, 4792.86, 14930.16, -1920.62, 21240.06, 30594.93, 17830.43, 26303.69, 0.174, 0.050, 0.968, 13:15:09.449
43, 30571.04, 4693.73, 14874.15, -2027.19, 21181.72, 30565.36, 17730.03, 26225.66, 0.000, 0.000, 0.000, 13:15:09.449
44, 30565.27, 4783.25, 14938.52, -1946.99, 21256.64, 30604.32, 17817.87, 26283.28, 0.000, 0.000, 0.000, 13:15:09.449
45, 30514.15, 4875.61, 15002.98, -1845.11, 21324.84, 30655.97, 17919.01, 26365.24, 0.000, 0.000, 0.000, 13:15:09.449
46, 30500.54, 4807.59, 14946.63, -1891.94, 21260.13, 30621.84, 17867.04, 26335.58, 0.000, 0.000, 0.000, 13:15:09.449
47, 30557.70, 4709.09, 14879.85, -1987.49, 21186.26, 30576.63, 17773.57, 26264.06, 0.000, 0.000, 0.000, 13:15:09.449
48, 30582.68, 4770.78, 14931.01, -1937.74, 21245.67, 30609.69, 17830.46, 26299.08, 0.000, 0.000, 0.000, 13:15:09.449
49, 30539.88, 4878.09, 15009.08, -1830.09, 21329.42, 30665.65, 17936.45, 26381.47, 0.000, 0.000, 0.000, 13:15:09.449
50, 30510.35, 4830.68, 14965.63, -1862.95, 21279.22, 30634.85, 17894.96, 26358.63, 0.000, 0.000, 0.000, 13:15:09.449
51, 30555.68, 4720.20, 14886.71, -1971.49, 21192.04, 30577.70, 17785.53, 26273.58, 0.000, 0.000, 0.000, 13:15:09.449
52, 30588.41, 4751.89, 14916.93, -1952.36, 21229.53, 30593.30, 17810.56, 26282.03, 0.180, 0.050, 0.966, 13:15:09.449
53, 30543.75, 4864.79, 15001.31, -1842.05, 21322.76, 30652.82, 17920.91, 26364.46, 0.000, 0.000, 0.000, 13:15:09.449
54, 30506.96, 4843.76, 14979.24, -1848.13, 21295.65, 30639.28, 17906.18, 26363.52, 0.000, 0.000, 0.000, 13:15:09.450
55, 30535.23, 4729.00, 14895.96, -1958.24, 21204.54, 30580.36, 17792.10, 26278.79, 0.000, 0.000, 0.000, 13:15:09.450
56, 30580.47, 4730.84, 14905.33, -1972.74, 21217.71, 30583.13, 17783.90, 26263.32, 0.000, 0.000, 0.000, 13:15:09.450
57, 30546.00, 4850.82, 14992.10, -1862.06, 21315.20, 30643.88, 17897.06, 26346.34, 0.000, 0.000, 0.000, 13:15:09.450
58, 30501.66, 4858.33, 14991.72, -1842.03, 21311.14, 30645.83, 17910.03, 26366.77, 0.000, 0.000, 0.000, 13:15:09.450
59, 30517.48, 4745.83, 14906.11, -1945.43, 21216.65, 30585.61, 17802.34, 26289.90, 0.000, 0.000, 0.000, 13:15:09.450
60, 30574.77, 4717.56, 14893.82, -1987.61, 21205.30, 30573.86, 17766.11, 26254.58, 0.000, 0.000, 0.000, 13:15:09.450
61, 30553.18, 4832.02, 14981.57, -1886.53, 21301.41, 30631.48, 17872.34, 26329.77, 0.180, 0.050, 0.962, 13:15:09.450
62, 30505.44, 4873.31, 15006.69, -1837.56, 21325.37, 30653.81, 17916.71, 26371.12, 0.000, 0.000, 0.000, 13:15:09.450
63, 30507.18, 4772.66, 14925.67, -1928.49, 21234.80, 30598.89, 17821.51, 26304.27, 0.000, 0.000, 0.000, 13:15:09.450
64, 30568.56, 4713.51, 14888.36, -1996.46, 21196.65, 30572.00, 17757.90, 26251.63, 0.000, 0.000, 0.000, 13:15:09.450
65, 30563.42, 4815.93, 14966.30, -1905.33, 21285.14, 30627.66, 17856.14, 26319.87, 0.000, 0.000, 0.000, 13:15:09.450
66, 30519.99, 4882.45, 15011.74, -1830.74, 21332.55, 30667.06, 17928.85, 26381.49, 0.000, 0.000, 0.000, 13:15:09.451
67, 30513.10, 4797.53, 14940.98, -1899.88, 21254.03, 30620.30, 17854.48, 26331.05, 0.000, 0.000, 0.000, 13:15:09.451
68, 30573.86, 4713.33, 14884.70, -1986.11, 21194.50, 30579.60, 17771.00, 26262.90, 0.000, 0.000, 0.000, 13:15:09.451
69, 30584.74, 4795.41, 14948.51, -1914.27, 21267.59, 30621.13, 17848.38, 26311.98, 0.000, 0.000, 0.000, 13:15:09.451
70, 30541.13, 4885.78, 15013.80, -1818.52, 21335.81, 30670.26, 17940.43, 26384.02, 0.000, 0.000, 0.000, 13:15:09.451
71, 30517.08, 4817.00, 14955.80, -1872.20, 21269.23, 30628.08, 17878.80, 26342.78, 0.180, 0.054, 0.962, 13:15:09.451
72, 30567.95, 4715.57, 14886.40, -1975.34, 21193.12, 30576.69, 17775.45, 26261.60, 0.000, 0.000, 0.000, 13:15:09.451
73, 30590.66, 4775.34, 14935.39, -1929.83, 21250.38, 30607.38, 17826.81, 26292.02, 0.000, 0.000, 0.000, 13:15:09.451
74, 30545.96, 4879.34, 15011.52, -1825.49, 21332.79, 30663.66, 17930.35, 26371.75, 0.000, 0.000, 0.000, 13:15:09.451
75, 30509.88, 4835.62, 14969.07, -1854.48, 21284.54, 30635.14, 17894.02, 26354.92, 0.000, 0.000, 0.000, 13:15:09.451
76, 30553.67, 4721.00, 14887.40, -1968.00, 21195.78, 30577.70, 17780.57, 26269.89, 0.000, 0.000, 0.000, 13:15:09.452
77, 30590.11, 4753.03, 14917.51, -1951.96, 21233.02, 30594.75, 17805.24, 26279.35, 0.000, 0.000, 0.000, 13:15:09.452
78, 30554.68, 4872.95, 15005.71, -1841.40, 21331.12, 30659.22, 17919.13, 26363.77, 0.000, 0.000, 0.000, 13:15:09.452
79, 30514.29, 4858.13, 14985.06, -1847.39, 21306.46, 30648.11, 17907.12, 26362.32, 0.000, 0.000, 0.000, 13:15:09.452
80, 30543.59, 4745.25, 14900.92, -1959.26, 21215.36, 30590.78, 17793.53, 26278.05, 0.000, 0.000, 0.000, 13:15:09.452
81, 30593.44, 4747.00, 14910.07, -1975.98, 21228.08, 30592.74, 17783.94, 26264.60, 0.182, 0.054, 0.964, 13:15:09.452
82, 30561.83, 4866.78, 14999.43, -1866.50, 21327.65, 30655.77, 17898.18, 26348.04, 0.000, 0.000, 0.000, 13:15:09.452
83, 30513.55, 4876.30, 15000.48, -1843.28, 21326.09, 30658.88, 17914.39, 26368.11, 0.000, 0.000, 0.000, 13:15:09.452
84, 30528.46, 4762.11, 14915.68, -1946.12, 21230.11, 30598.82, 17806.29, 26291.30, 0.000, 0.000, 0.000, 13:15:09.452
85, 30581.50, 4727.26, 14900.92, -1991.97, 21214.11, 30583.40, 17767.42, 26255.90, 0.000, 0.000, 0.000, 13:15:09.452
86, 30559.19, 4837.99, 14987.25, -1892.59, 21310.04, 30643.32, 17873.24, 26330.24, 0.000, 0.000, 0.000, 13:15:09.452
87, 30513.44, 4883.07, 15017.26, -1840.33, 21339.32, 30669.07, 17922.16, 26374.28, 0.000, 0.000, 0.000, 13:15:09.452
88, 30518.71, 4786.76, 14940.69, -1926.47, 21255.77, 30618.00, 17832.02, 26310.57, 0.000, 0.000, 0.000, 13:15:09.453
89, 30596.59, 4720.31, 14903.14, -2002.83, 21218.94, 30596.07, 17761.77, 26252.44, 0.000, 0.000, 0.000, 13:15:09.922
90, 30601.86, 4814.72, 14976.76, -1920.31, 21304.05, 30645.34, 17849.63, 26312.09, 0.000, 0.000, 0.000, 13:15:09.923
91, 30507.54, 4910.83, 15031.21, -1814.74, 21358.48, 30676.23, 17950.22, 26392.04, 0.182, 0.054, 0.970, 13:15:09.923
92, 30499.67, 4826.46, 14967.64, -1886.93, 21284.63, 30638.29, 17872.32, 26340.28, 0.000, 0.000, 0.000, 13:15:09.923
93, 30598.06, 4714.94, 14905.77, -2005.29, 21218.76, 30600.92, 17757.97, 26251.07, 0.000, 0.000, 0.000, 13:15:09.923
94, 30601.75, 4792.44, 14963.87, -1938.43, 21287.44, 30631.95, 17830.30, 26297.70, 0.000, 0.000, 0.000, 13:15:09.923
95, 30512.61, 4905.00, 15033.38, -1821.29, 21359.95, 30675.20, 17944.94, 26387.28, 0.000, 0.000, 0.000, 13:15:09.923
96, 30482.21, 4845.79, 14983.56, -1868.32, 21300.23, 30644.60, 17891.70, 26357.24, 0.000, 0.000, 0.000, 13:15:09.924
97, 30575.11, 4719.73, 14908.75, -2001.67, 21220.10, 30600.61, 17760.12, 26259.25, 0.000, 0.000, 0.000, 13:15:09.924
98, 30598.82, 4769.06, 14949.47, -1969.08, 21271.13, 30620.06, 17798.25, 26278.74, 0.000, 0.000, 0.000, 13:15:09.924
99, 30512.12, 4896.73, 15030.63, -1842.83, 21357.90, 30668.13, 17924.04, 26374.12, 0.000, 0.000, 0.000, 13:15:09.924
100, 30459.91, 4865.44, 14998.58, -1862.66, 21316.66, 30645.87, 17897.96, 26364.33, 0.174, 0.058, 0.966, 13:15:09.924
101, 30544.24, 4732.40, 14918.07, -1997.78, 21228.52, 30600.79, 17763.24, 26265.89, 0.000, 0.000, 0.000, 13:15:09.924
102, 30599.43, 4749.25, 14940.71, -1995.36, 21258.34, 30612.23, 17773.62, 26264.80, 0.000, 0.000, 0.000, 13:15:09.924
103, 30528.12, 4883.65, 15028.89, -1863.13, 21354.03, 30665.32, 17908.69, 26365.47, 0.000, 0.000, 0.000, 13:15:09.924
104, 30469.25, 4884.95, 15017.35, -1847.95, 21335.86, 30660.33, 17919.48, 26383.78, 0.000, 0.000, 0.000, 13:15:09.924
105, 30540.64, 4765.12, 14936.64, -1973.19, 21245.64, 30617.89, 17797.55, 26295.57, 0.000, 0.000, 0.000, 13:15:09.924
106, 30618.38, 4781.44, 14938.74, -2010.74, 21242.22, 30613.71, 17782.13, 26272.55, 0.000, 0.000, 0.000, 13:15:09.925
107, 30553.38, 4929.65, 15026.76, -1879.47, 21336.48, 30660.47, 17919.55, 26369.56, 0.000, 0.000, 0.000, 13:15:09.925
108, 30479.38, 4959.11, 15037.34, -1832.37, 21339.86, 30665.99, 17957.26, 26406.78, 0.000, 0.000, 0.000, 13:15:09.925
109, 30527.34, 4831.84, 14955.28, -1947.98, 21248.19, 30621.02, 17835.98, 26320.86, 0.000, 0.000, 0.000, 13:15:09.925
110, 30615.47, 4776.68, 14930.16, -2012.06, 21225.62, 30601.86, 17774.40, 26267.93, 0.176, 0.054, 0.970, 13:15:09.925
111, 30566.97, 4896.78, 15010.98, -1897.93, 21317.93, 30647.46, 17888.99, 26348.26, 0.000, 0.000, 0.000, 13:15:09.925
112, 30480.27, 4960.14, 15043.55, -1823.25, 21346.88, 30666.48, 17955.40, 26405.21, 0.000, 0.000, 0.000, 13:15:09.925
113, 30503.58, 4856.97, 14969.01, -1918.49, 21263.79, 30625.55, 17853.43, 26334.85, 0.000, 0.000, 0.000, 13:15:09.926
114, 30601.08, 4771.38, 14923.05, -2017.20, 21218.40, 30595.96, 17759.31, 26257.29, 0.000, 0.000, 0.000, 13:15:09.927
115, 30574.19, 4875.12, 14994.18, -1924.62, 21302.06, 30632.39, 17855.69, 26320.88, 0.000, 0.000, 0.000, 13:15:09.927
116, 30484.04, 4967.43, 15048.16, -1822.83, 21355.77, 30666.01, 17952.16, 26400.07, 0.000, 0.000, 0.000, 13:15:09.927
117, 30479.53, 4883.21, 14984.94, -1893.84, 21282.46, 30630.29, 17876.23, 26352.21, 0.000, 0.000, 0.000, 13:15:09.927
118, 30584.20, 4772.59, 14924.06, -2012.35, 21218.44, 30595.51, 17763.09, 26265.45, 0.000, 0.000, 0.000, 13:15:09.927
119, 30592.96, 4847.27, 14982.17, -1950.32, 21286.66, 30630.00, 17833.09, 26309.99, 0.000, 0.000, 0.000, 13:15:09.927
120, 30495.33, 4963.90, 15052.22, -1826.34, 21360.27, 30671.44, 17956.01, 26404.70, 0.180, 0.054, 0.970, 13:15:09.929
121, 30447.30, 4915.33, 15006.38, -1859.58, 21302.69, 30642.74, 17918.25, 26383.95, 0.000, 0.000, 0.000, 13:15:09.929
122, 30598.49, 4771.14, 14933.40, -2015.93, 21222.82, 30620.23, 17769.26, 26273.20, 0.000, 0.000, 0.000, 13:15:09.929
123, 30669.52, 4797.20, 14962.39, -2007.01, 21263.41, 30630.40, 17787.29, 26275.30, 0.000, 0.000, 0.000, 13:15:09.929
124, 30462.21, 4987.43, 15045.81, -1809.55, 21348.91, 30647.15, 17982.71, 26417.84, 0.000, 0.000, 0.000, 13:15:09.929
125, 30366.61, 5000.67, 15028.11, -1788.94, 21315.43, 30640.06, 18000.66, 26440.01, 0.000, 0.000, 0.000, 13:15:09.929
126, 30531.01, 4840.76, 14955.13, -1955.89, 21232.66, 30626.27, 17836.69, 26320.59, 0.000, 0.000, 0.000, 13:15:09.929
127, 30666.32, 4812.11, 14964.89, -2003.79, 21256.73, 30640.22, 17795.81, 26280.46, 0.000, 0.000, 0.000, 13:15:09.929
128, 30520.97, 4984.86, 15058.08, -1831.21, 21355.44, 30668.36, 17966.20, 26402.35, 0.000, 0.000, 0.000, 13:15:09.929
129, 30432.75, 5001.27, 15057.77, -1799.85, 21346.65, 30670.28, 17988.75, 26429.17, 0.000, 0.000, 0.000, 13:15:09.929
130, 30550.99, 4851.07, 14979.42, -1953.48, 21261.31, 30645.87, 17834.81, 26320.90, 0.180, 0.054, 0.972, 13:15:09.929
131, 30705.44, 4775.83, 14958.64, -2048.18, 21253.27, 30639.41, 17746.48, 26246.74, 0.000, 0.000, 0.000, 13:15:09.929
132, 30586.10, 4937.86, 15045.05, -1887.31, 21350.12, 30664.98, 17907.61, 26359.54, 0.000, 0.000, 0.000, 13:15:09.929
133, 30465.72, 5000.13, 15067.11, -1806.85, 21365.63, 30679.33, 17981.20, 26425.15, 0.000, 0.000, 0.000, 13:15:09.929
134, 30518.54, 4866.98, 14986.08, -1925.60, 21274.88, 30641.25, 17858.80, 26340.17, 0.000, 0.000, 0.000, 13:15:09.929
135, 30671.98, 4764.39, 14946.83, -2040.65, 21242.76, 30633.27, 17752.56, 26253.38, 0.000, 0.000, 0.000, 13:15:09.929
136, 30578.39, 4905.69, 15024.57, -1899.43, 21330.00, 30652.96, 17896.33, 26351.95, 0.000, 0.000, 0.000, 13:15:09.929
137, 30446.12, 5004.65, 15072.29, -1784.65, 21369.61, 30680.47, 18006.19, 26442.38, 0.000, 0.000, 0.000, 13:15:09.929
138, 30498.82, 4894.79, 15006.71, -1890.31, 21289.99, 30658.90, 17899.19, 26371.10, 0.000, 0.000, 0.000, 13:15:09.929
139, 30700.90, 4755.07, 14950.14, -2052.76, 21238.78, 30647.79, 17745.59, 26251.32, 0.178, 0.052, 0.968, 13:15:09.929
140, 30619.92, 4874.40, 15008.46, -1943.53, 21313.75, 30651.01, 17859.07, 26321.28, 0.000, 0.000, 0.000, 13:15:09.930
141, 30480.78, 5004.87, 15080.48, -1803.20, 21384.09, 30694.20, 17994.63, 26428.99, 0.000, 0.000, 0.000, 13:15:09.930
142, 30466.14, 4924.60, 15020.24, -1869.90, 21315.25, 30662.26, 17920.13, 26383.30, 0.000, 0.000, 0.000, 13:15:09.930
143, 30627.16, 4783.43, 14954.32, -2024.96, 21249.38, 30644.04, 17770.73, 26270.41, 0.000, 0.000, 0.000, 13:15:09.930
144, 30670.57, 4834.53, 15000.14, -1988.37, 21307.65, 30661.36, 17813.58, 26291.73, 0.000, 0.000, 0.000, 13:15:09.930
145, 30470.54, 5004.80, 15077.12, -1803.54, 21384.90, 30679.96, 17992.44, 26426.53, 0.000, 0.000, 0.000, 13:15:09.930
146, 30455.61, 4943.40, 15041.16, -1844.51, 21335.66, 30674.26, 17944.09, 26401.05, 0.000, 0.000, 0.000, 13:15:09.930
147, 30623.70, 4781.10, 14963.60, -2012.77, 21254.18, 30650.70, 17780.90, 26279.68, 0.000, 0.000, 0.000, 13:15:09.930
148, 30679.42, 4801.33, 14985.55, -2007.03, 21288.96, 30654.08, 17795.52, 26278.07, 0.000, 0.000, 0.000, 13:15:09.930
149, 30474.28, 4995.88, 15076.81, -1802.40, 21384.38, 30681.86, 17997.45, 26427.07, 0.174, 0.056, 0.968, 13:15:09.930
150, 30465.00, 4970.20, 15066.48, -1817.91, 21360.22, 30701.04, 17977.91, 26426.96, 0.000, 0.000, 0.000, 13:15:09.930
151, 30601.08, 4809.25, 14978.08, -1978.58, 21265.76, 30659.91, 17817.38, 26308.54, 0.000, 0.000, 0.000, 13:15:09.931
152, 30714.11, 4791.52, 14982.17, -2016.73, 21284.96, 30668.89, 17786.76, 26275.70, 0.000, 0.000, 0.000, 13:15:09.931
153, 30550.27, 4965.75, 15066.86, -1839.66, 21376.60, 30686.78, 17961.12, 26398.93, 0.000, 0.000, 0.000, 13:15:09.931
154, 30423.56, 5002.99, 15067.18, -1785.88, 21368.24, 30685.79, 18007.08, 26441.73, 0.000, 0.000, 0.000, 13:15:09.931
155, 30544.75, 4853.32, 14990.53, -1939.89, 21280.96, 30664.45, 17854.93, 26334.85, 0.000, 0.000, 0.000, 13:15:09.931
156, 30714.94, 4767.58, 14964.13, -2048.14, 21265.70, 30654.50, 17755.26, 26251.81, 0.000, 0.000, 0.000, 13:15:09.931
157, 30558.99, 4938.66, 15047.15, -1876.92, 21358.99, 30666.90, 17924.89, 26369.56, 0.000, 0.000, 0.000, 13:15:09.932
158, 30446.96, 5002.75, 15075.07, -1800.79, 21379.60, 30687.74, 17993.51, 26430.96, 0.000, 0.000, 0.000, 13:15:09.932
159, 30495.69, 4874.71, 14994.96, -1922.61, 21288.20, 30644.42, 17867.25, 26341.17, 0.180, 0.052, 0.964, 13:15:09.932
160, 30690.29, 4763.54, 14959.78, -2055.33, 21260.78, 30649.76, 17742.99, 26243.83, 0.000, 0.000, 0.000, 13:15:09.932
161, 30614.60, 4885.17, 15026.79, -1936.15, 21340.06, 30660.40, 17862.53, 26322.11, 0.000, 0.000, 0.000, 13:15:09.932
162, 30458.19, 4995.86, 15076.16, -1809.40, 21385.43, 30685.12, 17981.60, 26419.94, 0.000, 0.000, 0.000, 13:15:09.933
163, 30475.96, 4892.80, 15006.60, -1902.56, 21301.86, 30649.02, 17885.51, 26354.52, 0.000, 0.000, 0.000, 13:15:09.933
164, 30666.10, 4759.09, 14953.16, -2052.63, 21252.19, 30643.97, 17744.36, 26246.60, 0.000, 0.000, 0.000, 13:15:09.934
165, 30645.98, 4855.09, 15012.01, -1963.47, 21323.65, 30657.79, 17837.65, 26306.42, 0.000, 0.000, 0.000, 13:15:09.934
166, 30460.91, 5006.63, 15081.91, -1796.72, 21392.88, 30688.41, 17998.79, 26433.53, 0.000, 0.000, 0.000, 13:15:09.934
167, 30460.89, 4933.99, 15034.92, -1856.27, 21333.80, 30675.94, 17933.97, 26396.25, 0.000, 0.000, 0.000, 13:15:09.934
168, 30669.48, 4771.90, 14968.38, -2035.06, 21266.32, 30665.61, 17762.44, 26266.79, 0.000, 0.000, 0.000, 13:15:09.934
169, 30656.45, 4840.36, 15002.78, -1980.43, 21316.21, 30659.95, 17823.79, 26297.38, 0.180, 0.060, 0.966, 13:15:09.934
170, 30496.16, 5009.63, 15092.30, -1805.93, 21405.71, 30703.09, 17994.76, 26428.10, 0.000, 0.000, 0.000, 13:15:09.934
171, 30442.79, 4968.44, 15054.53, -1834.70, 21354.34, 30680.49, 17959.31, 26409.93, 0.000, 0.000, 0.000, 13:15:09.934
172, 30609.33, 4804.06, 14977.66, -2010.23, 21271.80, 30659.78, 17787.56, 26283.37, 0.000, 0.000, 0.000, 13:15:09.934
173, 30681.54, 4813.81, 14993.73, -2020.89, 21300.61, 30657.23, 17783.52, 26268.53, 0.000, 0.000, 0.000, 13:15:09.934
174, 30495.82, 4990.21, 15079.56, -1835.23, 21390.71, 30681.97, 17965.17, 26401.32, 0.000, 0.000, 0.000, 13:15:09.934
175, 30433.64, 4978.02, 15063.13, -1828.93, 21362.32, 30679.13, 17964.48, 26410.44, 0.000, 0.000, 0.000, 13:15:09.934
176, 30578.15, 4819.35, 14980.61, -1991.92, 21272.42, 30650.39, 17803.70, 26293.72, 0.000, 0.000, 0.000, 13:15:09.935
177, 30723.10, 4776.08, 14979.11, -2057.99, 21284.07, 30657.74, 17747.04, 26241.80, 0.000, 0.000, 0.000, 13:15:09.935
178, 30543.63, 4961.62, 15065.30, -1872.85, 21377.83, 30674.06, 17931.71, 26373.96, 0.000, 0.000, 0.000, 13:15:09.935
179, 30447.23, 5005.32, 15077.53, -1820.17, 21379.85, 30692.03, 17980.48, 26422.11, 0.180, 0.058, 0.958, 13:15:09.935
180, 30541.94, 4864.52, 14999.05, -1959.67, 21289.88, 30661.90, 17843.71, 26326.17, 0.000, 0.000, 0.000, 13:15:09.935
181, 30709.26, 4780.99, 14978.35, -2059.49, 21279.93, 30669.54, 17754.91, 26253.75, 0.000, 0.000, 0.000, 13:15:09.935
182, 30601.08, 4932.90, 15061.16, -1903.07, 21373.65, 30692.61, 17911.30, 26362.94, 0.000, 0.000, 0.000, 13:15:09.935
183, 30463.53, 5014.97, 15091.43, -1803.05, 21397.32, 30709.40, 18003.75, 26440.86, 0.000, 0.000, 0.000, 13:15:09.935
184, 30507.29, 4898.50, 15018.32, -1910.94, 21310.33, 30674.82, 17890.98, 26362.67, 0.000, 0.000, 0.000, 13:15:09.935
185, 30704.28, 4777.64, 14975.49, -2053.10, 21271.93, 30669.86, 17756.31, 26256.73, 0.000, 0.000, 0.000, 13:15:09.935
186, 30610.69, 4906.74, 15041.36, -1926.70, 21351.59, 30671.78, 17881.66, 26338.02, 0.000, 0.000, 0.000, 13:15:09.935
187, 30457.63, 5019.33, 15092.97, -1801.35, 21398.67, 30695.40, 17998.79, 26431.07, 0.000, 0.000, 0.000, 13:15:09.935
188, 30467.86, 4916.42, 15023.19, -1893.46, 21316.32, 30659.02, 17900.91, 26364.46, 0.176, 0.058, 0.962, 13:15:09.935
189, 30635.41, 4785.82, 14965.45, -2042.66, 21261.07, 30644.26, 17759.49, 26255.79, 0.000, 0.000, 0.000, 13:15:09.936
190, 30629.31, 4871.58, 15023.81, -1974.69, 21331.25, 30662.32, 17834.08, 26300.89, 0.000, 0.000, 0.000, 13:15:09.936
191, 30517.91, 5001.16, 15099.99, -1842.66, 21405.37, 30708.23, 17964.30, 26404.76, 0.000, 0.000, 0.000, 13:15:09.936
192, 30485.95, 4934.73, 15042.03, -1897.60, 21336.75, 30670.06, 17905.15, 26367.97, 0.000, 0.000, 0.000, 13:15:09.936
193, 30620.53, 4800.91, 14972.72, -2041.36, 21267.59, 30646.95, 17768.52, 26265.60, 0.000, 0.000, 0.000, 13:15:09.936
194, 30673.68, 4845.39, 15016.13, -2009.40, 21323.63, 30669.70, 17809.67, 26285.83, 0.000, 0.000, 0.000, 13:15:09.936
195, 30510.53, 5011.66, 15100.82, -1831.73, 21407.81, 30702.27, 17986.22, 26419.34, 0.000, 0.000, 0.000, 13:15:09.936
196, 30459.44, 4972.61, 15065.52, -1852.09, 21359.19, 30688.05, 17960.07, 26411.24, 0.000, 0.000, 0.000, 13:15:09.937
197, 30604.70, 4817.85, 14985.01, -2012.24, 21273.81, 30660.29, 17802.56, 26296.71, 0.000, 0.000, 0.000, 13:15:09.937
198, 30699.52, 4818.68, 15001.91, -2028.24, 21303.47, 30669.36, 17792.57, 26279.10, 0.178, 0.054, 0.964, 13:15:09.937
199, 30507.92, 4998.19, 15085.21, -1832.04, 21393.64, 30686.26, 17981.26, 26415.04, 0.000, 0.000, 0.000, 13:15:09.937
200, 30436.23, 5000.60, 15076.05, -1808.57, 21372.58, 30689.70, 17995.81, 26435.99, 0.000, 0.000, 0.000, 13:15:09.937
201, 30577.21, 4842.37, 14992.39, -1970.69, 21280.80, 30661.83, 17833.72, 26318.62, 0.000, 0.000, 0.000, 13:15:09.937
202, 30738.19, 4791.07, 14987.47, -2045.48, 21288.65, 30671.09, 17766.42, 26259.07, 0.000, 0.000, 0.000, 13:15:09.937
203, 30575.89, 4968.77, 15069.23, -1865.59, 21379.06, 30684.14, 17943.44, 26383.46, 0.000, 0.000, 0.000, 13:15:09.937
204, 30456.66, 5014.61, 15079.80, -1804.48, 21381.25, 30692.63, 17996.48, 26433.17, 0.000, 0.000, 0.000, 13:15:09.937
205, 30549.56, 4869.46, 14998.09, -1946.57, 21289.79, 30661.45, 17853.50, 26331.20, 0.000, 0.000, 0.000, 13:15:09.937
206, 30712.68, 4784.64, 14972.96, -2053.54, 21273.41, 30659.13, 17756.49, 26249.93, 0.000, 0.000, 0.000, 13:15:09.937
207, 30589.57, 4942.73, 15055.33, -1897.42, 21365.12, 30675.11, 17914.59, 26358.38, 0.000, 0.000, 0.000, 13:15:09.937
208, 30463.44, 5025.12, 15093.04, -1804.79, 21395.51, 30701.08, 18003.57, 26433.53, 0.182, 0.058, 0.966, 13:15:09.938
209, 30519.72, 4904.08, 15019.77, -1922.12, 21308.45, 30667.44, 17884.81, 26352.19, 0.000, 0.000, 0.000, 13:15:10.404
210, 30696.99, 4792.82, 14977.84, -2057.34, 21272.62, 30664.18, 17760.05, 26255.25, 0.000, 0.000, 0.000, 13:15:10.404
211, 30649.00, 4909.25, 15047.06, -1952.67, 21350.52, 30678.28, 17869.41, 26328.59, 0.000, 0.000, 0.000, 13:15:10.404
212, 30462.05, 5033.75, 15098.94, -1808.93, 21402.42, 30698.00, 18006.10, 26436.95, 0.000, 0.000, 0.000, 13:15:10.404
213, 30467.62, 4941.86, 15034.74, -1893.91, 21322.92, 30669.14, 17918.01, 26380.31, 0.000, 0.000, 0.000, 13:15:10.405
214, 30673.01, 4794.99, 14974.66, -2062.04, 21265.49, 30660.85, 17758.71, 26260.77, 0.000, 0.000, 0.000, 13:15:10.405
215, 30646.48, 4889.29, 15028.49, -1978.35, 21333.76, 30667.53, 17845.97, 26313.75, 0.000, 0.000, 0.000, 13:15:10.405
216, 30477.45, 5042.02, 15106.60, -1812.53, 21410.67, 30703.72, 18007.35, 26437.02, 0.000, 0.000, 0.000, 13:15:10.405
217, 30479.75, 4973.22, 15063.42, -1869.63, 21352.91, 30693.91, 17947.64, 26403.13, 0.000, 0.000, 0.000, 13:15:10.405
218, 30659.17, 4815.08, 14989.26, -2038.64, 21276.49, 30673.77, 17785.75, 26282.48, 0.180, 0.054, 0.954, 13:15:10.405
219, 30697.42, 4855.36, 15022.00, -2012.35, 21322.18, 30681.08, 17818.65, 26294.14, 0.000, 0.000, 0.000, 13:15:10.405
220, 30520.50, 5033.64, 15107.01, -1829.09, 21409.26, 30713.04, 18000.11, 26429.39, 0.000, 0.000, 0.000, 13:15:10.405
221, 30491.09, 5000.62, 15074.75, -1855.80, 21363.44, 30704.86, 17969.30, 26417.39, 0.000, 0.000, 0.000, 13:15:10.405
222, 30599.67, 4855.36, 14987.02, -2003.25, 21270.90, 30660.89, 17823.64, 26307.98, 0.000, 0.000, 0.000, 13:15:10.405
223, 30681.81, 4848.81, 15000.90, -2016.73, 21297.32, 30666.17, 17814.29, 26290.90, 0.000, 0.000, 0.000, 13:15:10.405
224, 30497.26, 5020.16, 15088.59, -1821.76, 21392.92, 30690.06, 18000.44, 26427.09, 0.000, 0.000, 0.000, 13:15:10.405
225, 30425.10, 5019.37, 15083.09, -1799.27, 21376.60, 30697.91, 18013.14, 26447.16, 0.000, 0.000, 0.000, 13:15:10.405
226, 30599.07, 4846.15, 15003.52, -1975.65, 21288.74, 30679.53, 17836.31, 26321.44, 0.000, 0.000, 0.000, 13:15:10.405
227, 30750.79, 4793.96, 14991.18, -2054.48, 21288.00, 30673.88, 17767.36, 26258.85, 0.178, 0.058, 0.962, 13:15:10.406
228, 30553.56, 4979.21, 15071.74, -1864.16, 21377.34, 30676.07, 17955.09, 26389.45, 0.000, 0.000, 0.000, 13:15:10.406
229, 30447.50, 5022.86, 15090.33, -1802.65, 21388.03, 30699.11, 18008.53, 26440.26, 0.000, 0.000, 0.000, 13:15:10.406
230, 30549.31, 4877.46, 15008.93, -1948.31, 21294.69, 30667.35, 17861.90, 26338.09, 0.000, 0.000, 0.000, 13:15:10.406
231, 30707.70, 4794.18, 14981.10, -2052.14, 21275.96, 30663.53, 17768.50, 26260.88, 0.000, 0.000, 0.000, 13:15:10.406
232, 30610.56, 4943.85, 15060.14, -1911.21, 21362.08, 30681.95, 17914.92, 26360.62, 0.000, 0.000, 0.000, 13:15:10.406
233, 30449.36, 5036.45, 15095.65, -1799.05, 21391.15, 30697.21, 18021.00, 26447.50, 0.000, 0.000, 0.000, 13:15:10.406
234, 30504.99, 4910.90, 15024.42, -1910.43, 21307.92, 30671.04, 17906.25, 26371.01, 0.000, 0.000, 0.000, 13:15:10.406
235, 30680.94, 4792.17, 14979.56, -2044.38, 21269.99, 30664.36, 17783.29, 26273.56, 0.000, 0.000, 0.000, 13:15:10.406
236, 30642.07, 4903.30, 15047.86, -1941.07, 21348.17, 30684.43, 17891.54, 26346.38, 0.000, 0.000, 0.000, 13:15:10.406
237, 30474.79, 5032.14, 15104.91, -1795.98, 21402.09, 30709.42, 18029.45, 26456.89, 0.174, 0.058, 0.966, 13:15:10.406
238, 30512.28, 4933.50, 15046.90, -1885.39, 21330.74, 30692.61, 17935.02, 26397.10, 0.000, 0.000, 0.000, 13:15:10.406
239, 30691.16, 4783.79, 14978.82, -2042.21, 21268.53, 30672.00, 17781.88, 26279.91, 0.000, 0.000, 0.000, 13:15:10.406
240, 30678.01, 4865.28, 15030.05, -1967.65, 21335.54, 30684.32, 17859.65, 26325.37, 0.000, 0.000, 0.000, 13:15:10.406
241, 30485.52, 5029.48, 15104.28, -1789.30, 21409.15, 30710.16, 18031.33, 26455.61, 0.000, 0.000, 0.000, 13:15:10.407
242, 30475.06, 4975.45, 15063.38, -1835.06, 21352.29, 30699.31, 17980.75, 26428.28, 0.000, 0.000, 0.000, 13:15:10.407
243, 30665.94, 4811.82, 14988.45, -2011.43, 21273.94, 30679.71, 17808.55, 26299.58, 0.000, 0.000, 0.000, 13:15:10.407
244, 30745.36, 4840.69, 15019.01, -2004.57, 21318.11, 30690.46, 17823.73, 26299.38, 0.000, 0.000, 0.000, 13:15:10.407
245, 30535.90, 5022.33, 15097.55, -1811.12, 21402.76, 30705.10, 18013.18, 26438.40, 0.000, 0.000, 0.000, 13:15:10.407
246, 30481.72, 4997.92, 15070.46, -1821.09, 21362.70, 30698.15, 17997.24, 26437.02, 0.000, 0.000, 0.000, 13:15:10.407
247, 30628.75, 4841.25, 14987.47, -1987.34, 21274.86, 30670.28, 17835.02, 26317.70, 0.180, 0.064, 0.966, 13:15:10.407
248, 30737.02, 4832.58, 14999.09, -2021.45, 21301.64, 30679.38, 17811.28, 26288.49, 0.000, 0.000, 0.000, 13:15:10.407
249, 30564.18, 5017.74, 15087.07, -1837.98, 21395.09, 30700.08, 17995.12, 26419.72, 0.000, 0.000, 0.000, 13:15:10.407
250, 30482.03, 5031.67, 15081.35, -1814.31, 21379.42, 30703.56, 18014.70, 26442.69, 0.000, 0.000, 0.000, 13:15:10.407
251, 30595.74, 4877.33, 14996.81, -1973.12, 21286.82, 30671.87, 17858.91, 26329.62, 0.000, 0.000, 0.000, 13:15:10.407
252, 30738.03, 4820.27, 14986.67, -2050.86, 21287.09, 30673.72, 17792.03, 26268.95, 0.000, 0.000, 0.000, 13:15:10.407
253, 30593.55, 4990.21, 15072.88, -1881.77, 21380.81, 30691.25, 17962.67, 26388.27, 0.000, 0.000, 0.000, 13:15:10.407
254, 30474.90, 5049.39, 15095.29, -1809.02, 21393.84, 30708.81, 18029.61, 26449.22, 0.000, 0.000, 0.000, 13:15:10.407
255, 30556.85, 4917.81, 15017.87, -1939.06, 21304.74, 30677.79, 17898.40, 26358.23, 0.000, 0.000, 0.000, 13:15:10.408
0, 30689.19, 4849.64, 14993.55, -2023.91, 21285.65, 30670.26, 17819.62, 26292.11, 0.000, 0.000, 0.000, 13:15:10.408
1, 30638.14, 4977.26, 15074.75, -1900.01, 21377.90, 30708.10, 17944.11, 26378.39, 0.180, 0.054, 0.972, 13:15:10.408
2, 30539.16, 5044.97, 15105.80, -1813.26, 21407.94, 30729.31, 18021.23, 26444.48, 0.000, 0.000, 0.000, 13:15:10.408
3, 30575.42, 4925.45, 15026.88, -1916.08, 21318.62, 30688.47, 17912.58, 26369.76, 0.000, 0.000, 0.000, 13:15:10.408
4, 30666.46, 4840.58, 14982.02, -2003.36, 21275.15, 30658.84, 17828.33, 26300.56, 0.000, 0.000, 0.000, 13:15:10.408
5, 30640.02, 4938.30, 15052.09, -1911.32, 21355.13, 30697.64, 17923.82, 26364.42, 0.000, 0.000, 0.000, 13:15:10.408
6, 30539.37, 5031.58, 15103.88, -1806.76, 21406.24, 30728.64, 18022.84, 26445.49, 0.000, 0.000, 0.000, 13:15:10.408
7, 30548.89, 4936.52, 15036.76, -1890.98, 21328.03, 30693.06, 17933.03, 26386.30, 0.000, 0.000, 0.000, 13:15:10.408
8, 30652.47, 4830.95, 14976.81, -2004.37, 21267.30, 30657.18, 17824.49, 26302.28, 0.000, 0.000, 0.000, 13:15:10.408
9, 30661.99, 4912.49, 15038.16, -1937.05, 21340.08, 30693.21, 17898.65, 26350.27, 0.000, 0.000, 0.000, 13:15:10.408
10, 30570.68, 5034.69, 15110.02, -1810.36, 21417.51, 30738.95, 18023.53, 26447.28, 0.178, 0.060, 0.972, 13:15:10.408
11, 30556.64, 4974.43, 15063.13, -1859.24, 21361.72, 30716.57, 17970.76, 26416.74, 0.000, 0.000, 0.000, 13:15:10.408
12, 30658.01, 4837.95, 14987.94, -1989.73, 21287.87, 30678.17, 17840.40, 26317.79, 0.000, 0.000, 0.000, 13:15:10.408
13, 30684.12, 4852.36, 15028.15, -1949.65, 21353.67, 30708.86, 17873.68, 26334.18, 0.000, 0.000, 0.000, 13:15:10.409
14, 30600.90, 4975.63, 15108.68, -1815.83, 21441.25, 30755.73, 18004.08, 26433.48, 0.000, 0.000, 0.000, 13:15:10.409
15, 30553.45, 4945.64, 15078.24, -1830.34, 21401.17, 30736.96, 17984.53, 26427.54, 0.000, 0.000, 0.000, 13:15:10.409
16, 30643.93, 4810.90, 14995.32, -1963.82, 21311.61, 30691.49, 17851.82, 26329.08, 0.000, 0.000, 0.000, 13:15:10.409
17, 30693.88, 4826.77, 15014.85, -1959.51, 21339.57, 30702.31, 17863.02, 26325.79, 0.000, 0.000, 0.000, 13:15:10.409
18, 30622.31, 4957.19, 15096.10, -1828.24, 21428.44, 30748.09, 17994.70, 26422.38, 0.000, 0.000, 0.000, 13:15:10.409
19, 30557.34, 4958.09, 15082.24, -1807.67, 21407.67, 30740.55, 18005.85, 26441.08, 0.000, 0.000, 0.000, 13:15:10.409
20, 30634.00, 4820.47, 14993.95, -1937.78, 21309.57, 30693.30, 17872.66, 26346.47, 0.176, 0.050, 0.970, 13:15:10.409
21, 30700.92, 4799.88, 14990.29, -1967.04, 21311.96, 30688.88, 17848.40, 26319.71, 0.000, 0.000, 0.000, 13:15:10.409
22, 30642.14, 4924.31, 15073.21, -1843.17, 21403.09, 30733.96, 17972.01, 26409.10, 0.000, 0.000, 0.000, 13:15:10.409
23, 30550.25, 4955.78, 15082.20, -1793.33, 21406.06, 30737.67, 18011.57, 26447.30, 0.000, 0.000, 0.000, 13:15:10.409
24, 30596.74, 4828.16, 14998.98, -1912.68, 21312.07, 30690.98, 17887.38, 26359.61, 0.000, 0.000, 0.000, 13:15:10.409
25, 30676.38, 4774.06, 14973.72, -1980.41, 21291.24, 30673.77, 17825.87, 26305.19, 0.000, 0.000, 0.000, 13:15:10.409
26, 30641.58, 4888.62, 15053.14, -1877.28, 21379.80, 30717.76, 17934.55, 26379.71, 0.000, 0.000, 0.000, 13:15:10.409
27, 30546.70, 4958.76, 15087.23, -1797.80, 21412.23, 30741.05, 18010.41, 26443.37, 0.000, 0.000, 0.000, 13:15:10.410
28, 30577.07, 4856.56, 15015.99, -1893.84, 21331.74, 30704.19, 17912.89, 26377.94, 0.000, 0.000, 0.000, 13:15:10.410
29, 30663.42, 4777.13, 14970.37, -1986.82, 21289.34, 30675.00, 17826.43, 26306.68, 0.000, 0.000, 0.000, 13:15:10.410
30, 30654.48, 4879.48, 15045.41, -1898.98, 21375.11, 30722.38, 17921.25, 26370.72, 0.176, 0.048, 0.970, 13:15:10.410
31, 30597.62, 4965.08, 15100.97, -1809.51, 21433.80, 30765.97, 18008.31, 26442.87, 0.000, 0.000, 0.000, 13:15:10.410
32, 30594.73, 4883.14, 15036.42, -1881.59, 21361.00, 30725.67, 17932.45, 26392.85, 0.000, 0.000, 0.000, 13:15:10.410
33, 30650.57, 4800.06, 14978.48, -1970.93, 21300.56, 30682.22, 17847.15, 26324.59, 0.000, 0.000, 0.000, 13:15:10.410
34, 30671.73, 4877.55, 15043.68, -1910.16, 21373.25, 30728.35, 17917.67, 26370.21, 0.000, 0.000, 0.000, 13:15:10.410
35, 30623.68, 4978.14, 15112.71, -1808.26, 21448.35, 30781.26, 18020.40, 26450.45, 0.000, 0.000, 0.000, 13:15:10.410
36, 30606.22, 4917.43, 15061.61, -1856.29, 21389.46, 30749.85, 17967.87, 26417.59, 0.000, 0.000, 0.000, 13:15:10.410
37, 30660.91, 4816.35, 14989.73, -1958.37, 21310.87, 30697.84, 17866.78, 26339.76, 0.000, 0.000, 0.000, 13:15:10.410
38, 30690.73, 4869.62, 15036.49, -1920.86, 21363.82, 30728.26, 17911.66, 26364.44, 0.000, 0.000, 0.000, 13:15:10.410
39, 30652.38, 4979.32, 15116.33, -1810.31, 21449.94, 30785.57, 18022.03, 26449.06, 0.000, 0.000, 0.000, 13:15:10.410
40, 30612.59, 4940.94, 15081.15, -1829.98, 21408.01, 30764.69, 17994.32, 26436.21, 0.174, 0.052, 0.974, 13:15:10.410
41, 30650.95, 4820.18, 14994.96, -1944.24, 21314.76, 30703.88, 17877.73, 26349.31, 0.000, 0.000, 0.000, 13:15:10.410
42, 30683.02, 4840.69, 15018.96, -1936.35, 21343.23, 30715.92, 17892.59, 26350.87, 0.000, 0.000, 0.000, 13:15:10.411
43, 30649.52, 4952.97, 15104.44, -1828.89, 21435.43, 30775.24, 18002.41, 26432.14, 0.000, 0.000, 0.000, 13:15:10.411
44, 30599.92, 4944.41, 15090.42, -1822.05, 21416.50, 30768.99, 18001.71, 26440.44, 0.000, 0.000, 0.000, 13:15:10.411
45, 30638.52, 4826.21, 15004.23, -1933.27, 21321.64, 30710.74, 17887.52, 26357.45, 0.000, 0.000, 0.000, 13:15:10.411
46, 30683.60, 4825.03, 15011.03, -1946.84, 21331.56, 30713.44, 17879.14, 26343.47, 0.000, 0.000, 0.000, 13:15:10.411
47, 30665.16, 4943.22, 15101.31, -1839.93, 21431.37, 30779.00, 17990.02, 26424.03, 0.000, 0.000, 0.000, 13:15:10.411
48, 30609.26, 4971.99, 15114.96, -1800.90, 21443.86, 30794.24, 18024.60, 26458.38, 0.000, 0.000, 0.000, 13:15:10.411
49, 30636.15, 4863.31, 15035.59, -1902.02, 21355.41, 30744.51, 17922.05, 26386.93, 0.000, 0.000, 0.000, 13:15:10.411
50, 30685.95, 4830.64, 15017.00, -1948.20, 21338.81, 30729.63, 17883.32, 26349.67, 0.180, 0.054, 0.968, 13:15:10.411
51, 30681.26, 4936.63, 15100.64, -1854.95, 21431.48, 30787.76, 17982.20, 26418.60, 0.000, 0.000, 0.000, 13:15:10.411
52, 30623.28, 4988.82, 15131.21, -1791.74, 21463.44, 30813.64, 18040.03, 26469.22, 0.000, 0.000, 0.000, 13:15:10.411
53, 30629.13, 4886.18, 15053.39, -1881.26, 21374.08, 30760.07, 17943.94, 26404.56, 0.000, 0.000, 0.000, 13:15:10.411
54, 30677.12, 4821.52, 15009.44, -1951.71, 21329.40, 30723.46, 17874.98, 26347.41, 0.000, 0.000, 0.000, 13:15:10.411
55, 30685.32, 4912.24, 15082.51, -1874.46, 21412.08, 30771.69, 17956.27, 26401.75, 0.000, 0.000, 0.000, 13:15:10.411
56, 30623.25, 4989.76, 15133.63, -1791.29, 21466.68, 30808.23, 18034.59, 26464.35, 0.000, 0.000, 0.000, 13:15:10.412
57, 30613.80, 4907.50, 15067.85, -1860.36, 21391.76, 30764.18, 17958.71, 26413.37, 0.000, 0.000, 0.000, 13:15:10.412
58, 30665.16, 4821.05, 15006.40, -1950.99, 21326.85, 30717.02, 17869.91, 26342.31, 0.000, 0.000, 0.000, 13:15:10.412
59, 30687.09, 4892.28, 15066.82, -1895.03, 21394.84, 30758.50, 17932.94, 26380.91, 0.178, 0.056, 0.966, 13:15:10.412
60, 30633.94, 4990.47, 15132.67, -1795.83, 21467.15, 30807.47, 18031.35, 26455.08, 0.000, 0.000, 0.000, 13:15:10.412
61, 30611.90, 4931.02, 15081.59, -1843.39, 21408.54, 30775.15, 17978.69, 26422.20, 0.000, 0.000, 0.000, 13:15:10.412
62, 30662.70, 4824.49, 15004.73, -1949.45, 21325.69, 30720.48, 17874.53, 26340.72, 0.000, 0.000, 0.000, 13:15:10.412
63, 30692.54, 4870.76, 15047.66, -1916.10, 21374.50, 30748.00, 17916.02, 26362.09, 0.000, 0.000, 0.000, 13:15:10.412
64, 30653.96, 4983.21, 15129.16, -1803.85, 21463.24, 30805.40, 18029.45, 26448.55, 0.000, 0.000, 0.000, 13:15:10.412
65, 30621.02, 4951.31, 15098.87, -1819.81, 21425.67, 30787.76, 18006.61, 26440.64, 0.000, 0.000, 0.000, 13:15:10.412
66, 30663.49, 4836.90, 15017.06, -1928.60, 21334.54, 30730.90, 17896.91, 26361.15, 0.000, 0.000, 0.000, 13:15:10.412
67, 30700.19, 4857.93, 15041.25, -1921.96, 21364.67, 30748.18, 17911.86, 26365.87, 0.000, 0.000, 0.000, 13:15:10.412
68, 30672.07, 4974.45, 15129.63, -1812.88, 21461.23, 30812.08, 18024.71, 26451.46, 0.000, 0.000, 0.000, 13:15:10.412
69, 30624.68, 4974.25, 15123.06, -1799.54, 21450.61, 30812.19, 18031.80, 26467.95, 0.182, 0.054, 0.970, 13:15:10.412
70, 30656.62, 4857.35, 15038.70, -1908.37, 21357.52, 30753.79, 17920.04, 26387.66, 0.000, 0.000, 0.000, 13:15:10.413
71, 30698.42, 4849.14, 15039.84, -1929.16, 21361.99, 30751.73, 17904.78, 26369.20, 0.000, 0.000, 0.000, 13:15:10.413
72, 30679.42, 4961.60, 15126.39, -1828.40, 21457.81, 30812.33, 18009.76, 26444.41, 0.000, 0.000, 0.000, 13:15:10.413
73, 30622.80, 4990.90, 15140.09, -1788.30, 21470.24, 30823.75, 18043.96, 26476.80, 0.000, 0.000, 0.000, 13:15:10.884
74, 30641.92, 4879.18, 15056.69, -1891.43, 21376.27, 30766.73, 17936.00, 26399.85, 0.000, 0.000, 0.000, 13:15:10.884
75, 30686.28, 4839.62, 15031.70, -1943.39, 21353.60, 30745.85, 17890.07, 26355.92, 0.000, 0.000, 0.000, 13:15:10.884
76, 30682.75, 4944.52, 15114.79, -1854.10, 21444.64, 30801.26, 17985.64, 26422.09, 0.000, 0.000, 0.000, 13:15:10.884
77, 30624.37, 5002.61, 15150.26, -1791.13, 21481.97, 30827.79, 18044.94, 26472.87, 0.000, 0.000, 0.000, 13:15:10.884
78, 30629.00, 4906.83, 15072.81, -1878.87, 21395.87, 30775.13, 17951.27, 26409.86, 0.000, 0.000, 0.000, 13:15:10.884
79, 30678.08, 4841.99, 15026.52, -1952.80, 21348.62, 30739.95, 17880.14, 26351.07, 0.178, 0.056, 0.968, 13:15:10.885
80, 30692.05, 4933.01, 15098.80, -1877.97, 21431.10, 30792.28, 17961.46, 26405.63, 0.000, 0.000, 0.000, 13:15:10.885
81, 30638.92, 5017.09, 15154.17, -1788.74, 21491.02, 30834.34, 18047.38, 26474.77, 0.000, 0.000, 0.000, 13:15:10.885
82, 30630.83, 4936.38, 15087.32, -1853.94, 21415.70, 30791.03, 17974.91, 26427.16, 0.000, 0.000, 0.000, 13:15:10.885
83, 30682.24, 4848.81, 15024.71, -1941.79, 21348.35, 30745.81, 17889.40, 26359.79, 0.000, 0.000, 0.000, 13:15:10.885
84, 30711.54, 4916.62, 15084.48, -1886.91, 21415.85, 30787.92, 17952.16, 26399.15, 0.000, 0.000, 0.000, 13:15:10.885
85, 30665.05, 5020.49, 15156.67, -1779.91, 21494.04, 30840.76, 18057.28, 26480.11, 0.000, 0.000, 0.000, 13:15:10.886
86, 30642.72, 4963.00, 15107.97, -1823.01, 21437.65, 30809.55, 18007.95, 26450.03, 0.000, 0.000, 0.000, 13:15:10.886
87, 30684.94, 4856.90, 15030.79, -1927.88, 21353.98, 30751.22, 17903.26, 26369.04, 0.000, 0.000, 0.000, 13:15:10.886
88, 30718.63, 4899.17, 15072.25, -1899.14, 21401.17, 30777.17, 17938.01, 26386.32, 0.000, 0.000, 0.000, 13:15:10.886
89, 30677.90, 5012.42, 15154.26, -1788.52, 21491.45, 30834.03, 18047.16, 26469.81, 0.178, 0.054, 0.968, 13:15:10.886
90, 30634.27, 4981.65, 15125.04, -1805.55, 21455.69, 30815.54, 18021.47, 26460.02, 0.000, 0.000, 0.000, 13:15:10.886
91, 30665.88, 4862.87, 15038.95, -1918.65, 21360.40, 30751.86, 17905.54, 26374.92, 0.000, 0.000, 0.000, 13:15:10.886
92, 30701.93, 4874.49, 15056.22, -1920.15, 21381.23, 30760.04, 17910.27, 26370.05, 0.000, 0.000, 0.000, 13:15:10.886
93, 30673.50, 4989.76, 15143.55, -1810.83, 21476.03, 30820.10, 18021.65, 26453.65, 0.000, 0.000, 0.000, 13:15:10.886
94, 30625.98, 4991.08, 15137.43, -1794.51, 21465.81, 30818.74, 18029.52, 26469.25, 0.000, 0.000, 0.000, 13:15:10.886
95, 30648.53, 4871.88, 15048.60, -1904.39, 21367.66, 30755.64, 17915.39, 26386.63, 0.000, 0.000, 0.000, 13:15:10.886
96, 30694.02, 4858.89, 15043.17, -1929.63, 21365.92, 30748.06, 17896.13, 26362.74, 0.000, 0.000, 0.000, 13:15:10.886
97, 30682.91, 4971.32, 15128.06, -1829.15, 21460.78, 30809.40, 18001.74, 26437.96, 0.000, 0.000, 0.000, 13:15:10.887
98, 30626.05, 5004.56, 15144.74, -1785.43, 21476.09, 30826.47, 18040.18, 26474.54, 0.174, 0.054, 0.970, 13:15:10.887
99, 30641.60, 4895.99, 15061.01, -1885.39, 21383.71, 30770.53, 17936.56, 26402.66, 0.000, 0.000, 0.000, 13:15:10.887
100, 30688.38, 4854.89, 15035.37, -1936.44, 21359.51, 30750.79, 17890.63, 26361.38, 0.000, 0.000, 0.000, 13:15:10.887
101, 30689.30, 4956.79, 15116.95, -1848.67, 21451.37, 30809.15, 17984.39, 26426.20, 0.000, 0.000, 0.000, 13:15:10.887
102, 30636.06, 5020.40, 15157.59, -1776.36, 21493.68, 30841.36, 18051.18, 26482.10, 0.000, 0.000, 0.000, 13:15:10.887
103, 30640.17, 4924.27, 15082.82, -1859.22, 21408.68, 30790.38, 17961.41, 26420.23, 0.000, 0.000, 0.000, 13:15:10.887
104, 30673.41, 4856.61, 15032.06, -1931.10, 21356.26, 30747.86, 17891.21, 26361.20, 0.000, 0.000, 0.000, 13:15:10.887
105, 30659.57, 4953.59, 15103.39, -1846.05, 21436.57, 30794.40, 17982.40, 26420.74, 0.000, 0.000, 0.000, 13:15:10.887
106, 30610.98, 5046.46, 15170.37, -1748.55, 21503.83, 30845.29, 18077.69, 26496.34, 0.000, 0.000, 0.000, 13:15:10.887
107, 30617.22, 4966.65, 15112.28, -1815.79, 21435.39, 30812.71, 18006.43, 26452.46, 0.000, 0.000, 0.000, 13:15:10.887
108, 30712.39, 4847.69, 15040.20, -1940.24, 21361.18, 30770.68, 17885.71, 26359.57, 0.176, 0.056, 0.970, 13:15:10.887
109, 30735.70, 4904.69, 15085.62, -1898.91, 21418.16, 30795.72, 17933.97, 26385.63, 0.000, 0.000, 0.000, 13:15:10.888
110, 30635.14, 5032.85, 15159.62, -1768.81, 21499.27, 30837.94, 18061.75, 26481.83, 0.000, 0.000, 0.000, 13:15:10.888
111, 30597.64, 4984.95, 15118.43, -1803.12, 21447.04, 30812.44, 18019.91, 26459.35, 0.000, 0.000, 0.000, 13:15:10.888
112, 30681.54, 4851.85, 15036.49, -1938.16, 21359.01, 30763.26, 17885.02, 26359.68, 0.000, 0.000, 0.000, 13:15:10.888
113, 30727.90, 4877.82, 15065.72, -1928.71, 21396.88, 30778.26, 17902.27, 26362.83, 0.000, 0.000, 0.000, 13:15:10.888
114, 30642.14, 5013.74, 15148.63, -1794.84, 21488.43, 30823.23, 18036.54, 26461.02, 0.000, 0.000, 0.000, 13:15:10.888
115, 30587.22, 4997.51, 15126.50, -1796.41, 21457.43, 30810.81, 18026.95, 26461.40, 0.000, 0.000, 0.000, 13:15:10.888
116, 30666.32, 4863.31, 15040.94, -1928.06, 21362.75, 30763.00, 17894.25, 26362.96, 0.000, 0.000, 0.000, 13:15:10.888
117, 30734.25, 4859.13, 15049.72, -1948.04, 21378.26, 30770.10, 17882.13, 26342.65, 0.000, 0.000, 0.000, 13:15:10.888
118, 30665.38, 4993.36, 15134.79, -1818.34, 21473.07, 30818.12, 18013.70, 26437.29, 0.176, 0.056, 0.970, 13:15:10.888
119, 30594.64, 5015.35, 15138.19, -1781.68, 21470.26, 30823.19, 18045.46, 26470.86, 0.000, 0.000, 0.000, 13:15:10.888
120, 30658.79, 4887.77, 15056.74, -1905.93, 21377.16, 30780.09, 17921.79, 26383.39, 0.000, 0.000, 0.000, 13:15:10.888
121, 30744.35, 4854.42, 15047.06, -1968.50, 21349.11, 30764.07, 17874.69, 26334.04, 0.000, 0.000, 0.000, 13:15:10.888
122, 30680.16, 4998.68, 15134.90, -1837.22, 21436.75, 30804.77, 18014.30, 26429.21, 0.000, 0.000, 0.000, 13:15:10.888
123, 30600.45, 5050.06, 15160.32, -1771.33, 21461.38, 30826.47, 18074.13, 26483.78, 0.000, 0.000, 0.000, 13:15:10.888
124, 30638.18, 4928.92, 15079.60, -1881.53, 21372.38, 30781.10, 17959.27, 26403.67, 0.000, 0.000, 0.000, 13:15:10.889
125, 30723.99, 4862.80, 15044.94, -1956.49, 21342.52, 30759.29, 17887.83, 26341.96, 0.000, 0.000, 0.000, 13:15:10.889
126, 30697.13, 4964.84, 15115.10, -1864.11, 21428.39, 30801.73, 17983.32, 26404.45, 0.000, 0.000, 0.000, 13:15:10.889
127, 30604.97, 5040.92, 15153.05, -1777.23, 21470.12, 30826.61, 18063.65, 26469.27, 0.000, 0.000, 0.000, 13:15:10.889
128, 30612.48, 4944.54, 15081.64, -1860.83, 21388.63, 30783.74, 17972.77, 26407.78, 0.174, 0.058, 0.968, 13:15:10.889
129, 30698.27, 4851.51, 15029.04, -1958.84, 21335.99, 30752.33, 17877.24, 26331.34, 0.000, 0.000, 0.000, 13:15:10.889
130, 30712.10, 4929.21, 15091.29, -1890.35, 21409.26, 30791.90, 17951.38, 26380.82, 0.000, 0.000, 0.000, 13:15:10.889
131, 30629.29, 5029.63, 15151.00, -1780.90, 21474.33, 30830.43, 18057.17, 26465.60, 0.000, 0.000, 0.000, 13:15:10.889
132, 30611.12, 4962.98, 15095.72, -1832.89, 21408.59, 30794.53, 17999.46, 26431.14, 0.000, 0.000, 0.000, 13:15:10.889
133, 30685.37, 4853.44, 15028.82, -1945.07, 21338.23, 30753.45, 17888.55, 26346.65, 0.000, 0.000, 0.000, 13:15:10.889
134, 30726.25, 4902.30, 15076.05, -1909.13, 21396.97, 30786.69, 17930.03, 26369.92, 0.000, 0.000, 0.000, 13:15:10.889
135, 30643.88, 5018.73, 15146.95, -1786.28, 21476.07, 30828.49, 18048.72, 26459.77, 0.000, 0.000, 0.000, 13:15:10.889
136, 30574.23, 4987.12, 15106.60, -1798.73, 21425.09, 30795.18, 18027.62, 26450.27, 0.000, 0.000, 0.000, 13:15:10.889
137, 30691.00, 4844.94, 15028.31, -1945.72, 21339.75, 30767.31, 17883.92, 26342.58, 0.000, 0.000, 0.000, 13:15:10.889
138, 30816.33, 4824.31, 15039.01, -1985.37, 21362.32, 30776.81, 17852.85, 26309.03, 0.174, 0.052, 0.968, 13:15:10.890
139, 30599.89, 5017.70, 15124.13, -1780.12, 21452.94, 30788.14, 18052.47, 26453.36, 0.000, 0.000, 0.000, 13:15:10.890
140, 30571.06, 5005.96, 15121.36, -1779.78, 21437.91, 30812.86, 18045.79, 26462.88, 0.000, 0.000, 0.000, 13:15:10.890
141, 30761.05, 4821.38, 15033.87, -1970.26, 21345.18, 30786.91, 17855.94, 26327.38, 0.000, 0.000, 0.000, 13:15:10.890
142, 30857.92, 4777.39, 15014.83, -2028.26, 21345.65, 30769.95, 17805.02, 26278.77, 0.000, 0.000, 0.000, 13:15:10.890
143, 30636.93, 4978.60, 15103.39, -1817.58, 21440.55, 30777.10, 18012.49, 26428.90, 0.000, 0.000, 0.000, 13:15:10.890
144, 30515.99, 5030.89, 15124.24, -1749.14, 21450.25, 30799.54, 18075.36, 26489.07, 0.000, 0.000, 0.000, 13:15:10.890
145, 30595.54, 4896.04, 15047.33, -1880.12, 21360.13, 30767.82, 17943.40, 26398.26, 0.000, 0.000, 0.000, 13:15:10.890
146, 30802.51, 4793.87, 15021.58, -2004.73, 21343.93, 30779.22, 17828.64, 26307.09, 0.000, 0.000, 0.000, 13:15:10.890
147, 30654.95, 4951.05, 15092.08, -1844.47, 21424.35, 30774.08, 17987.12, 26414.71, 0.182, 0.050, 0.972, 13:15:10.890
148, 30502.35, 5045.12, 15132.80, -1732.42, 21460.15, 30804.23, 18090.18, 26501.55, 0.000, 0.000, 0.000, 13:15:10.890
149, 30582.44, 4918.41, 15061.28, -1853.23, 21374.48, 30776.50, 17965.95, 26416.92, 0.000, 0.000, 0.000, 13:15:10.890
150, 30801.22, 4779.70, 15011.45, -2012.37, 21332.26, 30773.63, 17815.75, 26298.03, 0.000, 0.000, 0.000, 13:15:10.890
151, 30711.92, 4908.58, 15072.50, -1885.88, 21407.16, 30768.05, 17942.77, 26378.28, 0.000, 0.000, 0.000, 13:15:10.891
152, 30549.36, 5042.17, 15139.31, -1737.76, 21469.61, 30808.82, 18084.08, 26489.99, 0.000, 0.000, 0.000, 13:15:10.891
153, 30576.58, 4940.41, 15071.98, -1828.89, 21387.36, 30774.26, 17986.96, 26425.60, 0.000, 0.000, 0.000, 13:15:10.891
154, 30765.25, 4799.46, 15012.17, -1983.54, 21333.71, 30769.84, 17837.79, 26311.45, 0.000, 0.000, 0.000, 13:15:10.891
155, 30776.23, 4867.09, 15057.14, -1924.87, 21392.12, 30772.14, 17900.01, 26345.08, 0.000, 0.000, 0.000, 13:15:10.891
156, 30560.04, 5040.90, 15134.23, -1733.87, 21469.28, 30798.42, 18083.77, 26484.42, 0.000, 0.000, 0.000, 13:15:10.891
157, 30549.16, 4969.08, 15084.72, -1792.21, 21404.16, 30776.29, 18019.26, 26446.38, 0.184, 0.054, 0.972, 13:15:10.892
158, 30718.52, 4809.45, 15010.54, -1961.54, 21329.40, 30759.98, 17854.51, 26324.45, 0.000, 0.000, 0.000, 13:15:10.892
159, 30796.99, 4826.28, 15035.59, -1961.39, 21367.69, 30763.55, 17861.46, 26320.07, 0.000, 0.000, 0.000, 13:15:10.892
160, 30577.83, 5020.45, 15123.70, -1756.38, 21458.99, 30786.49, 18062.44, 26469.25, 0.000, 0.000, 0.000, 13:15:10.892
161, 30539.01, 4984.91, 15096.12, -1779.29, 21417.29, 30780.45, 18034.53, 26460.15, 0.000, 0.000, 0.000, 13:15:10.892
162, 30676.88, 4832.31, 15019.01, -1938.25, 21336.24, 30759.64, 17878.80, 26346.96, 0.000, 0.000, 0.000, 13:15:10.892
163, 30818.09, 4799.30, 15026.99, -1994.94, 21357.85, 30769.79, 17832.13, 26302.37, 0.000, 0.000, 0.000, 13:15:10.892
164, 30576.25, 5007.86, 15114.54, -1775.96, 21453.38, 30774.62, 18047.54, 26456.87, 0.000, 0.000, 0.000, 13:15:10.892
165, 30533.62, 5009.72, 15118.41, -1763.02, 21444.13, 30801.42, 18056.16, 26478.12, 0.000, 0.000, 0.000, 13:15:10.892
166, 30653.29, 4856.85, 15034.32, -1917.29, 21351.41, 30766.84, 17902.16, 26367.26, 0.000, 0.000, 0.000, 13:15:10.892
167, 30825.51, 4785.04, 15018.99, -2010.11, 21351.30, 30775.13, 17818.79, 26297.68, 0.180, 0.052, 0.970, 13:15:10.893
168, 30643.82, 4968.77, 15101.15, -1819.45, 21442.41, 30778.84, 18007.15, 26430.24, 0.000, 0.000, 0.000, 13:15:10.893
169, 30531.30, 5023.96, 15123.82, -1746.43, 21454.81, 30799.56, 18072.86, 26490.97, 0.000, 0.000, 0.000, 13:15:10.893
170, 30602.29, 4893.04, 15046.39, -1869.66, 21364.67, 30764.22, 17945.95, 26402.91, 0.000, 0.000, 0.000, 13:15:10.893
171, 30818.25, 4780.35, 15018.14, -2003.97, 21344.82, 30776.45, 17820.35, 26301.70, 0.000, 0.000, 0.000, 13:15:10.893
172, 30691.60, 4932.11, 15087.72, -1852.00, 21426.31, 30772.65, 17970.42, 26400.43, 0.000, 0.000, 0.000, 13:15:10.893
173, 30534.25, 5033.25, 15131.33, -1736.33, 21464.33, 30800.10, 18077.51, 26489.30, 0.000, 0.000, 0.000, 13:15:10.893
174, 30557.94, 4921.05, 15055.67, -1838.92, 21375.55, 30757.59, 17969.10, 26414.26, 0.000, 0.000, 0.000, 13:15:10.893
175, 30778.08, 4780.66, 15010.18, -2000.39, 21337.00, 30767.29, 17814.65, 26295.80, 0.000, 0.000, 0.000, 13:15:10.893
176, 30727.99, 4880.23, 15062.42, -1905.73, 21400.54, 30758.59, 17908.87, 26355.23, 0.000, 0.000, 0.000, 13:15:10.893
177, 30525.11, 5022.19, 15123.70, -1746.65, 21457.74, 30782.84, 18060.46, 26474.48, 0.178, 0.054, 0.972, 13:15:10.894
178, 30545.67, 4924.83, 15060.22, -1834.77, 21379.17, 30753.45, 17968.59, 26414.42, 0.000, 0.000, 0.000, 13:15:10.894
179, 30718.02, 4785.02, 14997.64, -1990.58, 21320.52, 30742.46, 17821.56, 26302.35, 0.000, 0.000, 0.000, 13:15:10.894
180, 30754.08, 4842.26, 15043.62, -1951.11, 21379.69, 30757.43, 17868.68, 26326.67, 0.000, 0.000, 0.000, 13:15:10.894
181, 30541.38, 5013.97, 15118.56, -1765.83, 21455.21, 30778.71, 18049.10, 26462.63, 0.000, 0.000, 0.000, 13:15:10.894
182, 30523.27, 4951.72, 15074.31, -1814.69, 21396.14, 30761.90, 17994.92, 26433.73, 0.000, 0.000, 0.000, 13:15:10.894
183, 30687.20, 4794.40, 15001.80, -1982.42, 21321.39, 30743.73, 17832.51, 26313.79, 0.000, 0.000, 0.000, 13:15:10.894
184, 30768.25, 4804.89, 15024.04, -1989.69, 21357.92, 30747.46, 17832.53, 26303.42, 0.000, 0.000, 0.000, 13:15:10.894
185, 30546.47, 4996.89, 15111.01, -1785.57, 21447.57, 30766.53, 18031.69, 26451.88, 0.000, 0.000, 0.000, 13:15:10.894
186, 30511.49, 4966.74, 15086.87, -1802.51, 21408.32, 30764.18, 18009.81, 26447.75, 0.174, 0.052, 0.974, 13:15:10.895
187, 30646.16, 4816.76, 15006.94, -1956.31, 21323.92, 30738.81, 17858.15, 26338.87, 0.000, 0.000, 0.000, 13:15:10.895
188, 30795.43, 4781.02, 15011.63, -2013.31, 21342.52, 30751.37, 17809.51, 26293.56, 0.000, 0.000, 0.000, 13:15:10.895
189, 30583.33, 4981.00, 15098.74, -1805.48, 21437.63, 30763.24, 18013.63, 26438.83, 0.000, 0.000, 0.000, 13:15:10.895
190, 30507.98, 4991.84, 15096.17, -1780.38, 21423.01, 30770.93, 18030.86, 26460.64, 0.000, 0.000, 0.000, 13:15:10.895
191, 30609.86, 4843.15, 15012.24, -1927.93, 21330.27, 30734.77, 17880.84, 26351.07, 0.000, 0.000, 0.000, 13:15:10.895
192, 30796.32, 4763.56, 14994.96, -2028.53, 21325.11, 30740.82, 17787.12, 26270.90, 0.000, 0.000, 0.000, 13:15:10.895
193, 30616.66, 4945.64, 15075.20, -1838.39, 21415.52, 30742.72, 17972.39, 26399.26, 0.000, 0.000, 0.000, 13:15:11.367
194, 30509.33, 5003.15, 15099.70, -1762.28, 21429.64, 30765.30, 18040.29, 26459.86, 0.000, 0.000, 0.000, 13:15:11.367
195, 30583.24, 4871.07, 15019.32, -1887.52, 21340.64, 30731.28, 17912.11, 26369.34, 0.000, 0.000, 0.000, 13:15:11.367
196, 30789.39, 4759.89, 14987.98, -2019.97, 21318.11, 30740.98, 17789.55, 26271.86, 0.182, 0.054, 0.970, 13:15:11.367
197, 30669.56, 4913.56, 15062.24, -1865.72, 21403.43, 30744.96, 17943.67, 26376.87, 0.000, 0.000, 0.000, 13:15:11.367
198, 30517.82, 5018.70, 15108.42, -1745.29, 21444.69, 30778.69, 18057.93, 26471.28, 0.000, 0.000, 0.000, 13:15:11.367
199, 30550.92, 4910.03, 15036.53, -1845.32, 21359.39, 30742.19, 17954.46, 26401.75, 0.000, 0.000, 0.000, 13:15:11.367
200, 30758.19, 4773.01, 14988.99, -2003.88, 21317.91, 30746.48, 17804.64, 26286.46, 0.000, 0.000, 0.000, 13:15:11.368
201, 30713.11, 4876.88, 15046.43, -1907.97, 21387.67, 30744.62, 17902.90, 26347.97, 0.000, 0.000, 0.000, 13:15:11.368
202, 30514.56, 5022.24, 15112.82, -1746.25, 21451.15, 30772.23, 18058.40, 26470.30, 0.000, 0.000, 0.000, 13:15:11.368
203, 30543.23, 4921.59, 15051.17, -1836.73, 21373.54, 30746.21, 17963.67, 26410.55, 0.000, 0.000, 0.000, 13:15:11.368
204, 30719.50, 4771.38, 14982.89, -1999.65, 21308.54, 30731.03, 17806.27, 26290.88, 0.000, 0.000, 0.000, 13:15:11.368
205, 30744.80, 4828.18, 15021.96, -1952.47, 21361.74, 30732.71, 17857.01, 26316.74, 0.000, 0.000, 0.000, 13:15:11.368
206, 30529.08, 5006.32, 15101.82, -1757.34, 21441.94, 30759.33, 18044.76, 26456.96, 0.182, 0.056, 0.968, 13:15:11.368
207, 30519.32, 4944.68, 15057.70, -1806.33, 21382.08, 30742.54, 17989.62, 26426.33, 0.000, 0.000, 0.000, 13:15:11.368
208, 30683.42, 4792.46, 14984.18, -1967.47, 21307.78, 30726.49, 17832.80, 26308.87, 0.000, 0.000, 0.000, 13:15:11.368
209, 30777.70, 4798.36, 15005.53, -1977.48, 21343.84, 30732.98, 17829.31, 26295.13, 0.000, 0.000, 0.000, 13:15:11.369
210, 30536.57, 4999.73, 15092.01, -1761.47, 21435.88, 30749.88, 18039.06, 26450.07, 0.000, 0.000, 0.000, 13:15:11.369
211, 30495.98, 4971.27, 15070.75, -1775.73, 21399.29, 30750.05, 18018.08, 26447.21, 0.000, 0.000, 0.000, 13:15:11.369
212, 30620.50, 4816.02, 14989.55, -1934.88, 21311.00, 30718.74, 17859.65, 26329.93, 0.000, 0.000, 0.000, 13:15:11.369
213, 30798.76, 4761.79, 14992.45, -2013.15, 21326.36, 30732.35, 17790.00, 26268.06, 0.000, 0.000, 0.000, 13:15:11.369
214, 30582.17, 4956.25, 15075.29, -1809.95, 21415.74, 30733.42, 17988.88, 26408.79, 0.000, 0.000, 0.000, 13:15:11.369
215, 30500.14, 4972.77, 15074.44, -1779.18, 21402.42, 30742.70, 18012.22, 26437.69, 0.000, 0.000, 0.000, 13:15:11.370
216, 30592.05, 4832.40, 14991.18, -1918.94, 21311.14, 30706.29, 17871.11, 26335.47, 0.180, 0.052, 0.968, 13:15:11.370
217, 30801.87, 4751.40, 14979.11, -2025.22, 21311.70, 30724.91, 17775.18, 26256.01, 0.000, 0.000, 0.000, 13:15:11.370
218, 30626.83, 4935.53, 15060.25, -1836.42, 21403.76, 30726.74, 17963.25, 26385.34, 0.000, 0.000, 0.000, 13:15:11.373
219, 30525.02, 4992.44, 15085.26, -1764.94, 21420.88, 30754.86, 18028.69, 26444.66, 0.000, 0.000, 0.000, 13:15:11.373
220, 30577.72, 4869.42, 15003.50, -1881.41, 21328.77, 30712.37, 17909.51, 26360.53, 0.000, 0.000, 0.000, 13:15:11.373
221, 30783.45, 4757.68, 14971.91, -2016.73, 21306.64, 30723.97, 17784.41, 26260.24, 0.000, 0.000, 0.000, 13:15:11.373
222, 30680.21, 4902.65, 15044.80, -1875.80, 21390.46, 30727.52, 17926.28, 26356.21, 0.000, 0.000, 0.000, 13:15:11.373
223, 30521.48, 5011.71, 15094.85, -1751.44, 21433.51, 30756.80, 18045.28, 26455.32, 0.000, 0.000, 0.000, 13:15:11.373
224, 30553.13, 4902.10, 15024.35, -1853.12, 21349.60, 30723.23, 17941.45, 26387.17, 0.000, 0.000, 0.000, 13:15:11.373
225, 30753.99, 4765.03, 14973.23, -2011.32, 21304.43, 30723.90, 17793.40, 26274.43, 0.174, 0.052, 0.968, 13:15:11.373
226, 30710.27, 4869.06, 15030.18, -1916.13, 21373.59, 30725.24, 17892.10, 26336.34, 0.000, 0.000, 0.000, 13:15:11.373
227, 30525.98, 5016.71, 15100.10, -1754.86, 21440.60, 30760.02, 18047.51, 26458.16, 0.000, 0.000, 0.000, 13:15:11.374
228, 30538.40, 4927.55, 15039.13, -1833.49, 21365.50, 30730.76, 17963.58, 26405.52, 0.000, 0.000, 0.000, 13:15:11.374
229, 30722.54, 4778.33, 14974.71, -1995.76, 21302.53, 30720.88, 17807.50, 26289.41, 0.000, 0.000, 0.000, 13:15:11.374
230, 30754.52, 4830.30, 15013.02, -1954.82, 21353.34, 30722.11, 17852.47, 26312.61, 0.000, 0.000, 0.000, 13:15:11.374
231, 30521.33, 5016.92, 15095.45, -1750.99, 21435.41, 30745.52, 18048.34, 26460.96, 0.000, 0.000, 0.000, 13:15:11.374
232, 30531.83, 4947.65, 15056.13, -1808.12, 21378.41, 30735.64, 17984.35, 26424.63, 0.000, 0.000, 0.000, 13:15:11.374
233, 30683.02, 4791.50, 14979.11, -1970.28, 21298.71, 30709.06, 17823.86, 26303.85, 0.000, 0.000, 0.000, 13:15:11.374
234, 30777.64, 4790.90, 14995.58, -1985.68, 21328.57, 30711.65, 17813.31, 26284.49, 0.000, 0.000, 0.000, 13:15:11.374
235, 30548.02, 4986.36, 15080.30, -1775.04, 21417.29, 30728.37, 18017.36, 26433.15, 0.180, 0.054, 0.968, 13:15:11.374
236, 30515.56, 4956.41, 15057.92, -1790.67, 21382.48, 30731.05, 17995.10, 26427.74, 0.000, 0.000, 0.000, 13:15:11.374
237, 30628.91, 4812.49, 14977.79, -1937.16, 21296.92, 30702.40, 17849.46, 26322.40, 0.000, 0.000, 0.000, 13:15:11.374
238, 30778.48, 4770.76, 14981.01, -2001.13, 21311.54, 30712.84, 17793.31, 26271.08, 0.000, 0.000, 0.000, 13:15:11.374
239, 30577.97, 4961.33, 15070.13, -1803.72, 21405.66, 30723.28, 17986.98, 26409.03, 0.000, 0.000, 0.000, 13:15:11.374
240, 30503.51, 4975.27, 15073.01, -1777.21, 21396.59, 30735.06, 18008.35, 26436.99, 0.000, 0.000, 0.000, 13:15:11.374
241, 30589.90, 4830.64, 14989.26, -1922.43, 21303.29, 30696.74, 17863.85, 26334.40, 0.000, 0.000, 0.000, 13:15:11.374
242, 30767.80, 4751.27, 14974.42, -2026.57, 21299.04, 30706.96, 17770.51, 26259.70, 0.000, 0.000, 0.000, 13:15:11.375
243, 30620.19, 4920.20, 15055.89, -1855.51, 21388.41, 30714.00, 17940.49, 26377.27, 0.000, 0.000, 0.000, 13:15:11.375
244, 30492.43, 4986.96, 15080.16, -1771.24, 21405.13, 30734.47, 18019.04, 26444.68, 0.000, 0.000, 0.000, 13:15:11.375
245, 30553.96, 4864.05, 15004.08, -1887.02, 21317.39, 30701.71, 17902.12, 26365.58, 0.178, 0.058, 0.970, 13:15:11.375
246, 30771.60, 4746.97, 14969.77, -2025.98, 21291.27, 30711.74, 17774.96, 26265.73, 0.000, 0.000, 0.000, 13:15:11.375
247, 30667.26, 4889.89, 15040.11, -1881.99, 21372.13, 30712.28, 17920.04, 26362.81, 0.000, 0.000, 0.000, 13:15:11.375
248, 30507.45, 4998.50, 15089.01, -1754.86, 21415.41, 30741.65, 18041.61, 26460.42, 0.000, 0.000, 0.000, 13:15:11.375
249, 30538.99, 4891.63, 15017.80, -1852.76, 21331.10, 30706.67, 17941.03, 26390.95, 0.000, 0.000, 0.000, 13:15:11.375
250, 30750.14, 4751.62, 14964.29, -2013.02, 21283.53, 30707.56, 17789.84, 26272.37, 0.000, 0.000, 0.000, 13:15:11.375
