%OpenBCI Raw EEG Data
%
%Sample Rate = 250.0 Hz
%First Column = SampleIndex
%Last Column = Timestamp 
%Other Columns = EEG data in microvolts followed by Accel Data (in G) interleaved with Aux Data
0, 0.00, 0.00, 0.00, 0.00, 0.00, 0.00, 0.00, 0.00, 0.154, 0.058, 0.984, 10:39:56.108
1, 60077.42, 37525.52, 28281.79, 19041.27, 43080.17, 61115.66, 49940.07, 52088.97, 0.000, 0.000, 0.000, 10:39:56.591
2, 59844.16, 37119.12, 27919.72, 18630.25, 42685.80, 60736.86, 49527.24, 51824.39, 0.000, 0.000, 0.000, 10:39:56.591
3, 59702.09, 36910.20, 27717.91, 18418.40, 42483.54, 60526.76, 49317.29, 51643.95, 0.000, 0.000, 0.000, 10:39:56.591
4, 59937.65, 37304.88, 28056.31, 18829.53, 42862.87, 60894.49, 49729.59, 51899.59, 0.000, 0.000, 0.000, 10:39:56.591
5, 60100.98, 37549.79, 28280.12, 19087.70, 43094.23, 61143.35, 49982.12, 52103.84, 0.000, 0.000, 0.000, 10:39:56.591
6, 59899.50, 37198.91, 27967.64, 18719.23, 42749.86, 60816.57, 49618.25, 51874.38, 0.000, 0.000, 0.000, 10:39:56.591
7, 59710.00, 36910.39, 27695.98, 18416.54, 42468.76, 60527.65, 49319.37, 51640.22, 0.154, 0.052, 0.978, 10:39:56.591
8, 59877.62, 37224.39, 27963.37, 18748.35, 42772.88, 60811.92, 49642.46, 51832.33, 0.000, 0.000, 0.000, 10:39:56.592
9, 60086.32, 37570.78, 28279.83, 19095.86, 43104.78, 61150.10, 49991.78, 52092.71, 0.000, 0.000, 0.000, 10:39:56.592
10, 59925.36, 37294.04, 28039.23, 18786.04, 42834.23, 60896.01, 49697.85, 51913.49, 0.000, 0.000, 0.000, 10:39:56.592
11, 59701.04, 36938.38, 27725.75, 18419.98, 42494.33, 60548.04, 49329.80, 51640.20, 0.000, 0.000, 0.000, 10:39:56.592
12, 59815.01, 37154.34, 27909.01, 18655.08, 42706.23, 60735.52, 49552.63, 51753.25, 0.000, 0.000, 0.000, 10:39:56.592
13, 60060.99, 37561.39, 28283.07, 19076.74, 43102.10, 61128.51, 49971.32, 52053.37, 0.000, 0.000, 0.000, 10:39:56.592
14, 59941.79, 37356.85, 28120.82, 18846.41, 42907.26, 60946.68, 49754.56, 51940.04, 0.000, 0.000, 0.000, 10:39:56.592
15, 59677.93, 36938.29, 27750.65, 18414.33, 42506.40, 60542.76, 49322.23, 51635.61, 0.000, 0.000, 0.000, 10:39:56.592
16, 59742.43, 37061.56, 27854.70, 18554.00, 42631.39, 60645.91, 49451.87, 51688.32, 0.000, 0.000, 0.000, 10:39:56.592
17, 60018.72, 37513.85, 28265.01, 19024.80, 43070.60, 61078.13, 49918.44, 52012.44, 0.156, 0.060, 0.980, 10:39:56.592
18, 59972.81, 37418.29, 28194.09, 18917.13, 42977.73, 61003.14, 49816.63, 51982.20, 0.000, 0.000, 0.000, 10:39:56.592
19, 59704.37, 36984.40, 27806.49, 18462.56, 42558.79, 60589.23, 49369.73, 51678.86, 0.000, 0.000, 0.000, 10:39:56.592
20, 59702.58, 36995.24, 27803.47, 18481.67, 42571.71, 60584.87, 49386.16, 51658.07, 0.000, 0.000, 0.000, 10:39:56.592
21, 59975.74, 37447.13, 28212.93, 18957.47, 43011.10, 61014.83, 49857.44, 51976.30, 0.000, 0.000, 0.000, 10:39:56.592
22, 60007.93, 37472.12, 28243.84, 18976.96, 43031.49, 61058.30, 49881.25, 52029.29, 0.000, 0.000, 0.000, 10:39:56.592
23, 59762.37, 37054.00, 27861.72, 18543.99, 42621.40, 60665.85, 49454.30, 51752.94, 0.000, 0.000, 0.000, 10:39:56.593
24, 59682.35, 36937.42, 27738.07, 18438.76, 42506.16, 60540.41, 49340.42, 51638.96, 0.000, 0.000, 0.000, 10:39:56.593
25, 59942.10, 37363.84, 28108.93, 18904.59, 42916.49, 60942.16, 49788.31, 51931.86, 0.000, 0.000, 0.000, 10:39:56.593
26, 60044.59, 37505.96, 28242.32, 19044.65, 43050.11, 61095.70, 49932.88, 52067.29, 0.000, 0.000, 0.000, 10:39:56.593
27, 59814.14, 37113.84, 27888.63, 18625.66, 42665.84, 60729.11, 49529.92, 51803.90, 0.156, 0.056, 0.982, 10:39:56.593
28, 59677.79, 36900.34, 27681.81, 18408.09, 42457.94, 60513.03, 49313.24, 51621.31, 0.000, 0.000, 0.000, 10:39:56.593
29, 59902.85, 37275.80, 28005.62, 18823.99, 42821.29, 60863.30, 49708.54, 51869.66, 0.000, 0.000, 0.000, 10:39:56.593
30, 60064.99, 37524.98, 28236.06, 19076.12, 43060.41, 61115.16, 49962.23, 52070.24, 0.000, 0.000, 0.000, 10:39:56.593
31, 59867.94, 37189.90, 27945.58, 18712.05, 42737.16, 60806.11, 49610.97, 51855.26, 0.000, 0.000, 0.000, 10:39:56.593
32, 59685.68, 36892.31, 27684.89, 18404.29, 42454.77, 60513.81, 49305.55, 51626.83, 0.000, 0.000, 0.000, 10:39:56.593
33, 59853.63, 37191.83, 27942.45, 18723.65, 42746.41, 60782.24, 49615.75, 51807.00, 0.000, 0.000, 0.000, 10:39:56.593
34, 60072.39, 37542.04, 28266.60, 19074.29, 43084.68, 61125.16, 49970.30, 52075.83, 0.000, 0.000, 0.000, 10:39:56.593
35, 59925.38, 37281.05, 28044.98, 18785.50, 42830.46, 60886.17, 49692.73, 51915.75, 0.000, 0.000, 0.000, 10:39:56.594
36, 59677.84, 36887.82, 27690.75, 18377.00, 42451.62, 60500.43, 49286.96, 51612.84, 0.000, 0.000, 0.000, 10:39:56.594
37, 59784.63, 37087.02, 27862.74, 18603.00, 42647.98, 60671.82, 49494.16, 51718.38, 0.154, 0.054, 0.978, 10:39:56.594
38, 60044.32, 37506.05, 28248.36, 19039.08, 43055.00, 61077.86, 49924.27, 52031.15, 0.000, 0.000, 0.000, 10:39:56.594
39, 59939.69, 37315.03, 28093.66, 18828.17, 42870.15, 60911.18, 49722.57, 51929.83, 0.000, 0.000, 0.000, 10:39:56.594
40, 59676.99, 36889.05, 27710.73, 18385.74, 42458.46, 60501.23, 49284.66, 51618.76, 0.000, 0.000, 0.000, 10:39:56.594
41, 59733.70, 37004.52, 27803.24, 18508.21, 42573.34, 60593.03, 49404.64, 51663.66, 0.000, 0.000, 0.000, 10:39:56.594
42, 60013.20, 37461.81, 28212.39, 18988.59, 43016.85, 61032.20, 49879.79, 51995.41, 0.000, 0.000, 0.000, 10:39:56.594
43, 59982.40, 37387.23, 28167.44, 18906.42, 42946.37, 60982.33, 49799.77, 51986.60, 0.000, 0.000, 0.000, 10:39:56.594
44, 59718.27, 36951.93, 27775.86, 18459.25, 42525.11, 60570.10, 49354.06, 51685.23, 0.000, 0.000, 0.000, 10:39:56.594
45, 59708.05, 36950.72, 27761.51, 18469.45, 42526.00, 60554.07, 49360.27, 51650.16, 0.000, 0.000, 0.000, 10:39:56.594
46, 59984.44, 37407.27, 28166.17, 18956.56, 42967.29, 60989.95, 49839.63, 51972.48, 0.000, 0.000, 0.000, 10:39:56.594
47, 60015.62, 37430.95, 28195.56, 18977.23, 42987.23, 61031.41, 49862.67, 52022.70, 0.156, 0.060, 0.974, 10:39:56.595
48, 59759.00, 36996.07, 27806.98, 18523.00, 42564.14, 60621.39, 49416.84, 51726.76, 0.000, 0.000, 0.000, 10:39:56.595
49, 59676.16, 36871.91, 27687.06, 18404.61, 42446.45, 60491.06, 49295.30, 51617.86, 0.000, 0.000, 0.000, 10:39:56.595
50, 59933.77, 37302.51, 28064.54, 18860.16, 42860.88, 60892.88, 49743.25, 51906.98, 0.000, 0.000, 0.000, 10:39:56.595
51, 60050.82, 37462.62, 28217.91, 19024.17, 43013.32, 61061.39, 49906.35, 52053.52, 0.000, 0.000, 0.000, 10:39:56.595
52, 59810.50, 37064.87, 27860.53, 18601.86, 42624.98, 60687.71, 49494.67, 51784.88, 0.000, 0.000, 0.000, 10:39:56.595
53, 59661.97, 36831.32, 27632.66, 18367.08, 42397.28, 60449.60, 49258.46, 51594.93, 0.000, 0.000, 0.000, 10:39:56.595
54, 59884.93, 37209.04, 27970.84, 18763.55, 42766.53, 60799.11, 49650.87, 51842.05, 0.000, 0.000, 0.000, 10:39:56.595
55, 60053.17, 37469.48, 28212.35, 19019.75, 43016.96, 61059.33, 49910.86, 52047.13, 0.000, 0.000, 0.000, 10:39:56.595
56, 59849.21, 37132.80, 27915.12, 18661.61, 42688.34, 60746.79, 49558.69, 51824.89, 0.156, 0.054, 0.980, 10:39:56.595
57, 59638.34, 36809.70, 27615.36, 18318.53, 42375.57, 60424.95, 49220.44, 51558.68, 0.000, 0.000, 0.000, 10:39:56.595
58, 59821.40, 37119.92, 27885.10, 18647.63, 42677.95, 60704.54, 49538.75, 51751.13, 0.000, 0.000, 0.000, 10:39:56.596
59, 60042.24, 37470.11, 28209.60, 19016.19, 43017.12, 61047.62, 49896.20, 52015.97, 0.000, 0.000, 0.000, 10:39:56.596
60, 59886.96, 37210.82, 27988.79, 18742.59, 42764.03, 60809.62, 49625.68, 51851.22, 0.000, 0.000, 0.000, 10:39:56.596
61, 59645.29, 36830.84, 27648.19, 18343.63, 42397.82, 60438.58, 49232.35, 51564.04, 0.000, 0.000, 0.000, 10:39:56.596
62, 59757.05, 37030.87, 27816.01, 18558.52, 42593.50, 60611.87, 49439.87, 51673.86, 0.000, 0.000, 0.000, 10:39:56.596
63, 60018.81, 37454.48, 28207.32, 18998.56, 43005.00, 61022.34, 49874.65, 51989.89, 0.000, 0.000, 0.000, 10:39:56.596
64, 59934.08, 37293.93, 28077.41, 18829.02, 42848.25, 60883.67, 49708.18, 51908.30, 0.000, 0.000, 0.000, 10:39:56.596
65, 59684.65, 36886.59, 27707.80, 18409.19, 42453.41, 60492.18, 49290.85, 51617.20, 0.000, 0.000, 0.000, 10:39:56.596
66, 59740.42, 36984.11, 27786.68, 18519.98, 42552.31, 60573.92, 49399.32, 51661.83, 0.156, 0.056, 0.980, 10:39:56.596
67, 60028.96, 37430.01, 28189.06, 18996.39, 42984.39, 61006.94, 49868.66, 51991.47, 0.000, 0.000, 0.000, 10:39:56.596
68, 60015.84, 37375.82, 28150.86, 18938.25, 42929.59, 60974.75, 49814.62, 51991.34, 0.000, 0.000, 0.000, 10:39:56.596
69, 59753.12, 36954.34, 27769.14, 18502.06, 42519.18, 60575.50, 49382.54, 51695.31, 0.000, 0.000, 0.000, 10:39:56.596
70, 59727.28, 36931.27, 27732.30, 18488.47, 42498.00, 60538.65, 49361.05, 51646.65, 0.000, 0.000, 0.000, 10:39:56.598
71, 60000.75, 37374.60, 28122.88, 18969.12, 42925.94, 60957.07, 49821.77, 51959.38, 0.000, 0.000, 0.000, 10:39:56.598
72, 60048.68, 37424.39, 28179.60, 19019.93, 42972.79, 61022.68, 49873.78, 52030.41, 0.000, 0.000, 0.000, 10:39:56.598
73, 59798.65, 37017.75, 27816.16, 18597.81, 42576.43, 60638.89, 49456.36, 51746.25, 0.000, 0.000, 0.000, 10:39:56.598
74, 59705.35, 36886.55, 27682.72, 18469.07, 42448.58, 60498.82, 49322.45, 51620.82, 0.000, 0.000, 0.000, 10:39:56.598
75, 59967.20, 37310.49, 28066.71, 18916.53, 42863.40, 60897.93, 49762.71, 51916.98, 0.000, 0.000, 0.000, 10:39:56.598
76, 60084.82, 37474.93, 28225.29, 19092.50, 43022.08, 61068.68, 49931.52, 52067.27, 0.154, 0.060, 0.980, 10:39:56.598
77, 59857.61, 37105.84, 27899.36, 18700.07, 42663.73, 60724.26, 49553.23, 51824.39, 0.000, 0.000, 0.000, 10:39:56.598
78, 59695.09, 36866.54, 27673.89, 18453.78, 42432.89, 60482.30, 49305.91, 51621.57, 0.000, 0.000, 0.000, 10:39:56.598
79, 59908.95, 37228.71, 27991.24, 18837.58, 42783.83, 60817.51, 49679.01, 51857.34, 0.000, 0.000, 0.000, 10:39:56.598
80, 60079.01, 37492.12, 28238.16, 19108.46, 43037.19, 61079.34, 49944.17, 52069.37, 0.000, 0.000, 0.000, 10:39:56.598
81, 59882.91, 37172.20, 27956.58, 18773.52, 42724.98, 60781.63, 49612.33, 51858.86, 0.000, 0.000, 0.000, 10:39:56.598
82, 59678.21, 36850.27, 27663.95, 18438.67, 42414.76, 60464.80, 49281.75, 51607.47, 0.000, 0.000, 0.000, 10:39:56.598
83, 59845.25, 37127.05, 27905.57, 18734.16, 42686.49, 60715.07, 49572.32, 51776.56, 0.000, 0.000, 0.000, 10:39:56.598
84, 60076.75, 37481.13, 28229.22, 19098.07, 43029.81, 61061.28, 49934.04, 52049.39, 0.000, 0.000, 0.000, 10:39:56.598
85, 59931.91, 37238.96, 28030.74, 18842.43, 42798.61, 60844.93, 49683.50, 51904.17, 0.000, 0.000, 0.000, 10:39:56.598
86, 59696.95, 36859.57, 27690.99, 18452.24, 42433.20, 60479.68, 49294.18, 51619.88, 0.156, 0.056, 0.984, 10:39:56.598
87, 59810.79, 37061.71, 27860.93, 18665.65, 42630.00, 60656.44, 49502.12, 51730.18, 0.000, 0.000, 0.000, 10:39:56.598
88, 60075.50, 37475.02, 28233.54, 19102.89, 43027.91, 61057.54, 49928.86, 52043.11, 0.000, 0.000, 0.000, 10:39:56.598
89, 60011.48, 37334.00, 28115.63, 18963.42, 42889.62, 60939.61, 49787.77, 51984.19, 0.000, 0.000, 0.000, 10:39:56.598
90, 59762.24, 36922.11, 27742.02, 18535.56, 42490.17, 60546.07, 49366.02, 51691.87, 0.000, 0.000, 0.000, 10:39:56.598
91, 59815.23, 37010.71, 27809.73, 18639.01, 42578.13, 60617.88, 49463.47, 51729.67, 0.000, 0.000, 0.000, 10:39:56.598
92, 60100.00, 37450.86, 28202.49, 19118.36, 43002.34, 61041.90, 49922.71, 52053.70, 0.000, 0.000, 0.000, 10:39:56.598
93, 60102.72, 37415.99, 28178.98, 19094.69, 42966.40, 61025.07, 49891.28, 52064.16, 0.000, 0.000, 0.000, 10:39:56.598
94, 59855.38, 37003.91, 27804.09, 18670.48, 42563.57, 60634.65, 49473.21, 51777.68, 0.000, 0.000, 0.000, 10:39:56.598
95, 59832.51, 36974.88, 27763.35, 18657.80, 42536.44, 60593.43, 49449.86, 51730.52, 0.156, 0.056, 0.978, 10:39:56.598
96, 60119.64, 37431.82, 28163.26, 19146.57, 42976.32, 61023.01, 49921.17, 52049.28, 0.000, 0.000, 0.000, 10:39:56.598
97, 60190.52, 37517.83, 28260.05, 19235.24, 43060.23, 61119.41, 50002.95, 52138.53, 0.000, 0.000, 0.000, 10:39:56.598
98, 59946.08, 37112.97, 27901.99, 18840.42, 42668.32, 60738.49, 49593.22, 51875.87, 0.000, 0.000, 0.000, 10:39:56.598
99, 59839.44, 36957.91, 27755.01, 18702.69, 42522.58, 60576.69, 49440.18, 51740.35, 0.000, 0.000, 0.000, 10:39:56.598
100, 60090.56, 37368.90, 28121.87, 19143.20, 42922.68, 60961.00, 49866.67, 52017.85, 0.000, 0.000, 0.000, 10:39:56.598
101, 60207.46, 37538.01, 28289.57, 19330.39, 43086.50, 61136.15, 50039.39, 52169.13, 0.000, 0.000, 0.000, 10:39:56.598
102, 59992.95, 37179.69, 27973.50, 18963.38, 42737.23, 60798.69, 49670.63, 51929.47, 0.000, 0.000, 0.000, 10:39:56.599
103, 59840.94, 36930.31, 27743.97, 18724.10, 42498.78, 60553.20, 49424.31, 51728.64, 0.000, 0.000, 0.000, 10:39:56.599
104, 60056.25, 37276.32, 28046.72, 19113.40, 42836.36, 60875.38, 49790.61, 51963.89, 0.000, 0.000, 0.000, 10:39:56.599
105, 60250.45, 37557.84, 28304.88, 19418.72, 43107.89, 61155.45, 50081.45, 52200.44, 0.164, 0.058, 0.982, 10:39:56.599
106, 60075.81, 37257.23, 28041.65, 19113.65, 42814.61, 60880.47, 49775.50, 52012.46, 0.000, 0.000, 0.000, 10:39:56.599
107, 59863.87, 36920.86, 27744.93, 18772.80, 42493.88, 60553.73, 49429.88, 51746.07, 0.000, 0.000, 0.000, 10:39:56.599
108, 60033.86, 37200.68, 27984.99, 19077.66, 42765.50, 60806.15, 49720.22, 51914.96, 0.000, 0.000, 0.000, 10:39:56.599
109, 60273.09, 37560.70, 28315.01, 19462.58, 43113.74, 61159.91, 50091.96, 52195.88, 0.000, 0.000, 0.000, 10:39:56.599
110, 60150.93, 37344.42, 28128.44, 19237.34, 42901.89, 60966.26, 49868.84, 52072.93, 0.000, 0.000, 0.000, 10:39:56.599
111, 59910.05, 36957.91, 27776.74, 18845.18, 42525.78, 60591.40, 49469.68, 51787.45, 0.000, 0.000, 0.000, 10:39:56.599
112, 60019.68, 37137.94, 27927.65, 19044.09, 42700.35, 60748.38, 49660.23, 51889.82, 0.000, 0.000, 0.000, 10:39:56.599
113, 60288.26, 37554.26, 28302.63, 19472.17, 43101.18, 61151.80, 50087.89, 52201.38, 0.000, 0.000, 0.000, 10:39:56.599
114, 60229.59, 37432.11, 28203.68, 19343.56, 42982.56, 61053.30, 49965.56, 52158.26, 0.000, 0.000, 0.000, 10:39:56.599
115, 59978.65, 37017.93, 27825.44, 18922.85, 42578.48, 60658.65, 49542.28, 51863.38, 0.158, 0.052, 0.978, 10:39:56.600
116, 60002.63, 37073.83, 27857.04, 18999.61, 42632.38, 60693.66, 49602.23, 51868.16, 0.000, 0.000, 0.000, 10:39:56.600
117, 60284.73, 37520.48, 28252.58, 19465.71, 43063.16, 61120.71, 50063.57, 52185.98, 0.000, 0.000, 0.000, 10:39:56.600
118, 60281.04, 37498.54, 28253.79, 19438.71, 43044.03, 61116.77, 50041.15, 52197.09, 0.000, 0.000, 0.000, 10:39:56.600
119, 60020.67, 37079.78, 27881.03, 19006.49, 42637.32, 60719.45, 49612.29, 51899.72, 0.000, 0.000, 0.000, 10:39:56.600
120, 59979.36, 37031.95, 27827.68, 18967.94, 42593.10, 60657.20, 49566.51, 51832.49, 0.000, 0.000, 0.000, 10:39:56.600
121, 60246.96, 37472.32, 28222.21, 19441.19, 43019.80, 61072.86, 50022.89, 52137.81, 0.000, 0.000, 0.000, 10:39:57.071
122, 60306.37, 37556.20, 28312.75, 19525.54, 43100.96, 61167.87, 50105.52, 52225.43, 0.000, 0.000, 0.000, 10:39:57.071
123, 60067.18, 37169.23, 27970.50, 19109.24, 42723.82, 60802.09, 49703.08, 51955.06, 0.000, 0.000, 0.000, 10:39:57.071
124, 59946.21, 37000.70, 27804.99, 18937.09, 42560.71, 60624.61, 49531.02, 51800.64, 0.000, 0.000, 0.000, 10:39:57.071
125, 60182.76, 37399.34, 28153.34, 19360.54, 42944.54, 60993.37, 49942.51, 52065.77, 0.166, 0.052, 0.980, 10:39:57.071
126, 60317.21, 37603.10, 28341.74, 19560.88, 43138.84, 61200.10, 50146.90, 52237.30, 0.000, 0.000, 0.000, 10:39:57.071
127, 60109.34, 37259.38, 28040.60, 19195.32, 42805.40, 60881.97, 49791.13, 52017.22, 0.000, 0.000, 0.000, 10:39:57.071
128, 59932.96, 36982.95, 27788.98, 18915.14, 42540.40, 60606.60, 49507.30, 51794.38, 0.000, 0.000, 0.000, 10:39:57.071
129, 60128.83, 37317.49, 28078.06, 19271.70, 42866.42, 60913.98, 49858.20, 51998.79, 0.000, 0.000, 0.000, 10:39:57.071
130, 60302.25, 37593.87, 28331.60, 19559.54, 43133.05, 61190.54, 50144.41, 52214.21, 0.000, 0.000, 0.000, 10:39:57.072
131, 60138.26, 37307.83, 28093.77, 19255.51, 42857.08, 60935.46, 49852.46, 52046.21, 0.000, 0.000, 0.000, 10:39:57.072
132, 59928.38, 36958.12, 27774.93, 18900.68, 42521.18, 60598.89, 49497.49, 51790.89, 0.000, 0.000, 0.000, 10:39:57.072
133, 60079.01, 37219.68, 27995.69, 19188.84, 42775.34, 60836.04, 49773.67, 51948.94, 0.000, 0.000, 0.000, 10:39:57.072
134, 60310.68, 37593.04, 28328.18, 19575.43, 43133.32, 61199.70, 50156.39, 52221.45, 0.162, 0.054, 0.978, 10:39:57.072
135, 60197.96, 37394.47, 28158.86, 19360.92, 42937.39, 61024.20, 49951.72, 52108.15, 0.000, 0.000, 0.000, 10:39:57.072
136, 59940.29, 36977.52, 27780.78, 18933.02, 42533.69, 60623.79, 49526.99, 51801.04, 0.000, 0.000, 0.000, 10:39:57.073
137, 60027.38, 37143.59, 27918.31, 19123.73, 42697.38, 60767.11, 49708.13, 51887.85, 0.000, 0.000, 0.000, 10:39:57.073
138, 60283.26, 37572.41, 28302.94, 19573.15, 43110.21, 61178.27, 50150.41, 52192.62, 0.000, 0.000, 0.000, 10:39:57.073
139, 60220.36, 37471.13, 28219.39, 19466.83, 43007.13, 61094.31, 50041.98, 52151.07, 0.000, 0.000, 0.000, 10:39:57.074
140, 59945.34, 37033.78, 27827.07, 19000.01, 42583.96, 60676.09, 49587.59, 51837.02, 0.000, 0.000, 0.000, 10:39:57.074
141, 59955.96, 37079.84, 27851.77, 19062.69, 42629.09, 60700.43, 49639.67, 51835.82, 0.000, 0.000, 0.000, 10:39:57.075
142, 60219.20, 37534.41, 28263.49, 19532.27, 43068.68, 61131.04, 50105.93, 52146.91, 0.000, 0.000, 0.000, 10:39:57.075
143, 60210.86, 37526.63, 28267.20, 19512.63, 43058.55, 61136.87, 50094.08, 52170.27, 0.000, 0.000, 0.000, 10:39:57.075
144, 59950.15, 37097.59, 27883.53, 19061.32, 42642.16, 60731.97, 49648.99, 51870.11, 0.160, 0.054, 0.980, 10:39:57.075
145, 59892.26, 37029.93, 27810.29, 19003.92, 42577.93, 60650.16, 49582.61, 51786.98, 0.000, 0.000, 0.000, 10:39:57.075
146, 60138.55, 37463.31, 28192.14, 19468.70, 42995.48, 61055.60, 50031.83, 52075.27, 0.000, 0.000, 0.000, 10:39:57.075
147, 60212.85, 37580.50, 28310.63, 19586.14, 43108.33, 61183.61, 50150.81, 52192.08, 0.000, 0.000, 0.000, 10:39:57.075
148, 59969.17, 37179.64, 27958.14, 19165.12, 42721.67, 60812.03, 49737.12, 51927.75, 0.000, 0.000, 0.000, 10:39:57.075
149, 59840.60, 36988.92, 27779.13, 18977.75, 42541.40, 60618.67, 49543.82, 51760.74, 0.000, 0.000, 0.000, 10:39:57.075
150, 60083.36, 37405.51, 28143.71, 19427.04, 42944.34, 61007.56, 49980.64, 52039.42, 0.000, 0.000, 0.000, 10:39:57.075
151, 60225.43, 37634.95, 28358.17, 19645.55, 43164.64, 61242.01, 50214.98, 52225.23, 0.000, 0.000, 0.000, 10:39:57.075
152, 60025.54, 37292.05, 28058.21, 19282.54, 42830.52, 60928.48, 49863.68, 52011.30, 0.000, 0.000, 0.000, 10:39:57.076
153, 59846.55, 37006.55, 27794.24, 18991.27, 42555.77, 60645.62, 49571.16, 51791.14, 0.000, 0.000, 0.000, 10:39:57.076
154, 60042.55, 37357.25, 28102.74, 19375.34, 42896.98, 60967.51, 49936.01, 52005.46, 0.160, 0.060, 0.980, 10:39:57.076
155, 60237.82, 37681.15, 28397.71, 19705.28, 43208.07, 61287.43, 50268.20, 52253.50, 0.000, 0.000, 0.000, 10:39:57.076
156, 60087.25, 37417.55, 28171.11, 19411.10, 42950.84, 61050.10, 49993.68, 52102.94, 0.000, 0.000, 0.000, 10:39:57.076
157, 59864.94, 37050.32, 27836.88, 19030.68, 42597.82, 60693.57, 49614.07, 51832.29, 0.000, 0.000, 0.000, 10:39:57.076
158, 60012.49, 37316.10, 28064.22, 19327.11, 42857.23, 60932.13, 49895.15, 51993.17, 0.000, 0.000, 0.000, 10:39:57.076
159, 60249.55, 37717.41, 28428.60, 19745.13, 43244.48, 61321.25, 50307.38, 52279.75, 0.000, 0.000, 0.000, 10:39:57.076
160, 60136.41, 37522.41, 28262.91, 19533.59, 43053.13, 61150.57, 50104.65, 52170.73, 0.000, 0.000, 0.000, 10:39:57.076
161, 59874.87, 37092.11, 27874.44, 19082.87, 42636.49, 60736.24, 49657.84, 51862.73, 0.000, 0.000, 0.000, 10:39:57.077
162, 59965.39, 37257.23, 28009.04, 19261.44, 42795.68, 60873.90, 49829.19, 51944.87, 0.000, 0.000, 0.000, 10:39:57.077
163, 60221.10, 37695.70, 28399.21, 19722.08, 43218.39, 61293.58, 50281.61, 52250.57, 0.000, 0.000, 0.000, 10:39:57.077
164, 60184.24, 37612.17, 28347.35, 19628.52, 43140.50, 61234.93, 50197.61, 52232.45, 0.160, 0.058, 0.976, 10:39:57.077
165, 59921.89, 37161.96, 27947.64, 19155.98, 42707.05, 60808.57, 49731.85, 51923.73, 0.000, 0.000, 0.000, 10:39:57.077
166, 59917.83, 37185.61, 27956.18, 19195.07, 42733.58, 60812.19, 49762.31, 51899.72, 0.000, 0.000, 0.000, 10:39:57.077
167, 60192.89, 37654.39, 28371.09, 19695.57, 43187.12, 61257.10, 50248.20, 52222.10, 0.000, 0.000, 0.000, 10:39:57.078
168, 60220.87, 37686.79, 28413.63, 19710.59, 43217.57, 61305.00, 50275.09, 52284.64, 0.000, 0.000, 0.000, 10:39:57.078
169, 59965.59, 37246.03, 28026.20, 19237.30, 42791.77, 60890.38, 49817.19, 51992.05, 0.000, 0.000, 0.000, 10:39:57.078
170, 59905.18, 37162.05, 27940.22, 19157.63, 42712.19, 60791.98, 49732.83, 51902.27, 0.000, 0.000, 0.000, 10:39:57.078
171, 60157.10, 37606.88, 28329.63, 19624.12, 43140.77, 61206.41, 50190.80, 52194.41, 0.000, 0.000, 0.000, 10:39:57.078
172, 60245.53, 37739.29, 28460.10, 19758.12, 43266.79, 61348.92, 50323.83, 52313.21, 0.000, 0.000, 0.000, 10:39:57.078
173, 60007.12, 37325.29, 28096.66, 19324.89, 42864.52, 60964.83, 49894.88, 52042.23, 0.000, 0.000, 0.000, 10:39:57.078
174, 59882.73, 37123.30, 27908.32, 19119.03, 42672.68, 60757.07, 49688.57, 51871.27, 0.156, 0.058, 0.980, 10:39:57.078
175, 60116.60, 37536.76, 28267.65, 19553.35, 43073.98, 61141.21, 50119.72, 52134.46, 0.000, 0.000, 0.000, 10:39:57.078
176, 60265.87, 37780.19, 28495.77, 19799.58, 43309.18, 61390.18, 50368.49, 52335.33, 0.000, 0.000, 0.000, 10:39:57.078
177, 60073.60, 37437.29, 28198.42, 19436.25, 42974.98, 61075.54, 50011.98, 52127.91, 0.000, 0.000, 0.000, 10:39:57.079
178, 59885.93, 37130.18, 27914.15, 19120.53, 42678.17, 60769.34, 49693.38, 51886.31, 0.000, 0.000, 0.000, 10:39:57.079
179, 60073.55, 37475.43, 28211.39, 19490.79, 43011.89, 61082.87, 50052.44, 52094.65, 0.000, 0.000, 0.000, 10:39:57.079
180, 60268.21, 37806.14, 28512.71, 19838.92, 43330.11, 61408.38, 50391.09, 52342.96, 0.000, 0.000, 0.000, 10:39:57.079
181, 60113.99, 37531.04, 28277.55, 19526.82, 43063.43, 61160.83, 50103.73, 52180.26, 0.000, 0.000, 0.000, 10:39:57.079
182, 59891.14, 37146.00, 27932.06, 19119.08, 42693.73, 60788.94, 49708.36, 51901.78, 0.000, 0.000, 0.000, 10:39:57.079
183, 60028.04, 37403.88, 28148.47, 19407.86, 42944.07, 61017.87, 49980.71, 52046.57, 0.160, 0.056, 0.978, 10:39:57.079
184, 60266.85, 37814.81, 28519.57, 19832.54, 43342.29, 61418.52, 50403.45, 52338.64, 0.000, 0.000, 0.000, 10:39:57.079
185, 60176.50, 37639.46, 28371.04, 19641.06, 43171.30, 61270.96, 50222.54, 52256.39, 0.000, 0.000, 0.000, 10:39:57.079
186, 59913.76, 37197.30, 27985.01, 19176.59, 42749.66, 60850.70, 49765.02, 51945.59, 0.000, 0.000, 0.000, 10:39:57.079
187, 59970.15, 37333.29, 28093.39, 19338.86, 42883.63, 60962.68, 49916.27, 52004.71, 0.000, 0.000, 0.000, 10:39:57.080
188, 60224.94, 37783.81, 28492.26, 19819.71, 43317.84, 61393.78, 50384.59, 52317.25, 0.000, 0.000, 0.000, 10:39:57.080
189, 60198.79, 37722.93, 28449.43, 19749.93, 43255.23, 61353.01, 50316.82, 52311.64, 0.000, 0.000, 0.000, 10:39:57.080
190, 59944.74, 37279.45, 28059.84, 19273.75, 42828.36, 60934.27, 49854.29, 52015.04, 0.000, 0.000, 0.000, 10:39:57.080
191, 59948.02, 37315.54, 28077.84, 19321.16, 42865.53, 60947.80, 49894.21, 52006.03, 0.000, 0.000, 0.000, 10:39:57.080
192, 60195.91, 37772.01, 28476.37, 19808.47, 43304.45, 61377.24, 50367.55, 52313.63, 0.000, 0.000, 0.000, 10:39:57.080
193, 60235.22, 37823.80, 28536.00, 19850.38, 43353.02, 61443.45, 50415.95, 52389.31, 0.156, 0.056, 0.974, 10:39:57.080
194, 59977.26, 37371.98, 28143.51, 19367.81, 42918.32, 61018.83, 49942.02, 52081.15, 0.000, 0.000, 0.000, 10:39:57.080
195, 59918.41, 37276.18, 28050.46, 19283.10, 42830.50, 60911.72, 49849.91, 51985.89, 0.000, 0.000, 0.000, 10:39:57.080
196, 60161.59, 37716.31, 28432.89, 19747.16, 43255.47, 61323.39, 50308.03, 52271.12, 0.000, 0.000, 0.000, 10:39:57.080
197, 60257.20, 37859.59, 28570.92, 19883.22, 43392.34, 61477.18, 50454.73, 52405.50, 0.000, 0.000, 0.000, 10:39:57.081
198, 60045.21, 37457.52, 28233.22, 19444.14, 43004.84, 61106.34, 50030.78, 52156.30, 0.000, 0.000, 0.000, 10:39:57.081
199, 59904.64, 37228.68, 28018.80, 19213.13, 42785.46, 60870.91, 49794.23, 51974.31, 0.000, 0.000, 0.000, 10:39:57.081
200, 60121.96, 37626.68, 28364.94, 19642.40, 43169.29, 61236.98, 50210.02, 52219.69, 0.000, 0.000, 0.000, 10:39:57.081
201, 60277.24, 37882.36, 28599.97, 19899.91, 43412.32, 61492.42, 50469.37, 52416.65, 0.000, 0.000, 0.000, 10:39:57.081
202, 60088.75, 37528.89, 28292.26, 19521.68, 43066.47, 61168.14, 50097.70, 52202.09, 0.000, 0.000, 0.000, 10:39:57.081
203, 59884.86, 37185.10, 27977.52, 19165.44, 42735.71, 60827.32, 49740.59, 51937.09, 0.160, 0.054, 0.972, 10:39:57.081
204, 60062.93, 37511.88, 28255.46, 19528.25, 43053.13, 61124.13, 50089.45, 52135.93, 0.000, 0.000, 0.000, 10:39:57.081
205, 60273.85, 37857.66, 28570.27, 19892.31, 43387.42, 61468.93, 50451.89, 52403.11, 0.000, 0.000, 0.000, 10:39:57.081
206, 60128.56, 37570.38, 28325.72, 19591.73, 43109.27, 61215.46, 50156.82, 52244.88, 0.000, 0.000, 0.000, 10:39:57.081
207, 59883.16, 37142.88, 27949.78, 19142.68, 42700.84, 60803.92, 49717.68, 51938.75, 0.000, 0.000, 0.000, 10:39:57.082
208, 59991.84, 37375.74, 28140.96, 19397.42, 42926.64, 61005.80, 49965.56, 52059.91, 0.000, 0.000, 0.000, 10:39:57.082
209, 60224.27, 37795.48, 28514.57, 19839.21, 43331.22, 61411.17, 50401.04, 52354.20, 0.000, 0.000, 0.000, 10:39:57.082
210, 60140.27, 37631.13, 28381.98, 19652.53, 43170.92, 61272.57, 50224.21, 52275.41, 0.000, 0.000, 0.000, 10:39:57.082
211, 59865.21, 37156.11, 27960.11, 19151.49, 42714.09, 60818.83, 49729.10, 51938.72, 0.000, 0.000, 0.000, 10:39:57.082
212, 59924.20, 37296.68, 28071.18, 19318.57, 42853.30, 60932.86, 49883.66, 51997.89, 0.000, 0.000, 0.000, 10:39:57.082
213, 60184.21, 37771.23, 28492.21, 19817.91, 43311.33, 61384.84, 50374.77, 52321.32, 0.158, 0.052, 0.972, 10:39:57.082
214, 60168.79, 37721.88, 28458.46, 19754.98, 43259.74, 61356.32, 50316.97, 52326.91, 0.000, 0.000, 0.000, 10:39:57.082
215, 59910.05, 37246.70, 28039.05, 19244.27, 42800.57, 60907.07, 49819.87, 52008.17, 0.000, 0.000, 0.000, 10:39:57.082
216, 59900.08, 37251.93, 28031.79, 19261.75, 42808.11, 60890.06, 49831.38, 51973.44, 0.000, 0.000, 0.000, 10:39:57.083
217, 60154.64, 37720.40, 28441.61, 19760.91, 43259.09, 61330.26, 50317.66, 52280.17, 0.000, 0.000, 0.000, 10:39:57.083
218, 60215.91, 37799.61, 28533.77, 19837.98, 43335.09, 61426.26, 50396.10, 52381.45, 0.000, 0.000, 0.000, 10:39:57.083
219, 59964.03, 37343.30, 28130.92, 19344.88, 42892.75, 60999.27, 49918.48, 52093.09, 0.000, 0.000, 0.000, 10:39:57.083
220, 59869.28, 37220.21, 28003.96, 19231.28, 42776.41, 60861.92, 49799.04, 51971.34, 0.000, 0.000, 0.000, 10:39:57.083
221, 60109.58, 37689.76, 28407.63, 19725.95, 43227.33, 61297.94, 50289.21, 52267.30, 0.000, 0.000, 0.000, 10:39:57.083
222, 60228.18, 37895.39, 28599.99, 19929.35, 43423.13, 61510.77, 50498.45, 52444.52, 0.160, 0.052, 0.976, 10:39:57.083
223, 60020.27, 37503.43, 28261.16, 19510.46, 43043.16, 61150.26, 50087.31, 52207.48, 0.000, 0.000, 0.000, 10:39:57.083
224, 59867.34, 37265.59, 28036.98, 19266.40, 42816.17, 60905.48, 49842.82, 52002.43, 0.000, 0.000, 0.000, 10:39:57.083
225, 60070.11, 37676.08, 28388.68, 19708.11, 43213.81, 61282.71, 50272.85, 52239.27, 0.000, 0.000, 0.000, 10:39:57.083
226, 60242.31, 37971.79, 28660.21, 20014.96, 43499.09, 61579.37, 50575.31, 52461.75, 0.000, 0.000, 0.000, 10:39:57.084
227, 60075.32, 37640.92, 28382.24, 19658.40, 43180.06, 61283.88, 50229.44, 52277.33, 0.000, 0.000, 0.000, 10:39:57.084
228, 59864.68, 37281.01, 28052.44, 19284.21, 42834.19, 60930.27, 49859.25, 52012.20, 0.000, 0.000, 0.000, 10:39:57.084
229, 60030.14, 37605.89, 28334.26, 19643.18, 43149.57, 61223.10, 50203.25, 52194.85, 0.000, 0.000, 0.000, 10:39:57.084
230, 60247.70, 37979.43, 28674.45, 20037.82, 43509.10, 61589.98, 50591.25, 52468.66, 0.000, 0.000, 0.000, 10:39:57.084
231, 60121.09, 37714.01, 28454.62, 19757.89, 43251.83, 61359.18, 50319.07, 52337.61, 0.000, 0.000, 0.000, 10:39:57.084
232, 59878.55, 37275.60, 28061.16, 19303.21, 42829.72, 60936.80, 49867.05, 52027.13, 0.158, 0.054, 0.972, 10:39:57.084
233, 59979.41, 37492.93, 28237.47, 19540.63, 43040.32, 61125.11, 50100.85, 52133.18, 0.000, 0.000, 0.000, 10:39:57.084
234, 60220.83, 37927.36, 28625.21, 19994.42, 43458.25, 61544.63, 50550.17, 52432.03, 0.000, 0.000, 0.000, 10:39:57.084
235, 60145.82, 37770.51, 28504.13, 19816.25, 43305.52, 61413.74, 50380.85, 52366.63, 0.000, 0.000, 0.000, 10:39:57.085
236, 59872.86, 37282.15, 28069.86, 19297.02, 42834.34, 60945.34, 49869.42, 52027.04, 0.000, 0.000, 0.000, 10:39:57.085
237, 59924.60, 37397.84, 28155.49, 19433.90, 42946.59, 61033.02, 49996.74, 52070.04, 0.000, 0.000, 0.000, 10:39:57.085
238, 60180.91, 37863.36, 28566.96, 19929.57, 43394.19, 61476.88, 50482.57, 52383.84, 0.000, 0.000, 0.000, 10:39:57.085
239, 60170.80, 37822.68, 28547.15, 19876.27, 43352.73, 61457.84, 50434.68, 52396.71, 0.000, 0.000, 0.000, 10:39:57.085
240, 59903.88, 37327.61, 28113.98, 19349.17, 42875.94, 60990.24, 49916.59, 52063.20, 0.000, 0.000, 0.000, 10:39:57.085
241, 59872.77, 37302.24, 28068.02, 19328.29, 42851.06, 60941.71, 49893.94, 51999.39, 0.000, 0.000, 0.000, 10:39:57.550
242, 60129.99, 37767.07, 28479.77, 19820.70, 43301.36, 61379.83, 50376.83, 52303.59, 0.160, 0.050, 0.974, 10:39:57.550
243, 60192.80, 37845.68, 28567.63, 19898.80, 43376.42, 61473.26, 50452.47, 52397.38, 0.000, 0.000, 0.000, 10:39:57.550
244, 59948.14, 37375.80, 28163.33, 19398.18, 42923.75, 61034.54, 49956.19, 52102.34, 0.000, 0.000, 0.000, 10:39:57.550
245, 59859.51, 37231.46, 28023.25, 19244.65, 42788.23, 60877.21, 49811.66, 51975.87, 0.000, 0.000, 0.000, 10:39:57.550
246, 60090.65, 37663.79, 28394.00, 19701.74, 43205.05, 61277.37, 50264.45, 52250.31, 0.000, 0.000, 0.000, 10:39:57.550
247, 60219.38, 37863.14, 28576.41, 19902.53, 43394.08, 61481.62, 50466.01, 52412.96, 0.000, 0.000, 0.000, 10:39:57.550
248, 60007.61, 37450.37, 28219.68, 19460.75, 42995.34, 61102.31, 50029.26, 52158.49, 0.000, 0.000, 0.000, 10:39:57.550
249, 59852.40, 37186.55, 27973.45, 19189.13, 42744.76, 60834.16, 49756.50, 51950.79, 0.000, 0.000, 0.000, 10:39:57.550
250, 60057.88, 37571.20, 28300.93, 19599.73, 43117.59, 61187.63, 50161.09, 52185.18, 0.000, 0.000, 0.000, 10:39:57.551
251, 60236.90, 37869.96, 28572.10, 19912.32, 43403.80, 61485.13, 50469.19, 52412.29, 0.000, 0.000, 0.000, 10:39:57.551
252, 60068.86, 37530.84, 28284.08, 19548.14, 43075.54, 61181.04, 50112.63, 52223.60, 0.156, 0.048, 0.972, 10:39:57.551
253, 59850.39, 37152.55, 27955.28, 19154.55, 42716.82, 60811.99, 49722.17, 51946.32, 0.000, 0.000, 0.000, 10:39:57.551
254, 60007.23, 37461.43, 28218.07, 19502.59, 43017.00, 61091.09, 50054.85, 52125.45, 0.000, 0.000, 0.000, 10:39:57.551
255, 60233.16, 37849.57, 28568.43, 19907.49, 43390.21, 61471.39, 50458.03, 52406.48, 0.000, 0.000, 0.000, 10:39:57.551
0, 60131.67, 37614.48, 28375.70, 19655.30, 43160.57, 61267.83, 50212.57, 52296.42, 0.000, 0.000, 0.000, 10:39:57.551
1, 59891.36, 37170.17, 27981.32, 19185.17, 42733.88, 60842.18, 49755.94, 51996.62, 0.000, 0.000, 0.000, 10:39:57.551
2, 59987.57, 37373.32, 28145.27, 19410.97, 42930.95, 61016.95, 49976.62, 52096.08, 0.000, 0.000, 0.000, 10:39:57.551
3, 60245.17, 37820.96, 28542.19, 19881.94, 43360.28, 61445.08, 50436.93, 52398.97, 0.000, 0.000, 0.000, 10:39:57.551
4, 60192.55, 37685.98, 28439.82, 19730.13, 43228.34, 61336.16, 50289.37, 52346.49, 0.000, 0.000, 0.000, 10:39:57.551
5, 59935.11, 37205.06, 28019.03, 19218.14, 42767.29, 60879.54, 49788.17, 52023.71, 0.158, 0.052, 0.974, 10:39:57.552
6, 59969.86, 37296.37, 28085.55, 19335.17, 42859.04, 60944.67, 49890.63, 52044.61, 0.000, 0.000, 0.000, 10:39:57.552
7, 60215.66, 37751.78, 28485.08, 19817.91, 43298.21, 61374.45, 50362.57, 52342.55, 0.000, 0.000, 0.000, 10:39:57.552
8, 60228.88, 37736.02, 28486.02, 19784.69, 43280.13, 61376.97, 50339.10, 52372.06, 0.000, 0.000, 0.000, 10:39:57.552
9, 59977.08, 37260.11, 28070.46, 19266.62, 42820.89, 60925.36, 49835.98, 52061.57, 0.000, 0.000, 0.000, 10:39:57.552
10, 59946.55, 37235.86, 28042.90, 19245.32, 42803.30, 60878.64, 49811.15, 52002.83, 0.000, 0.000, 0.000, 10:39:57.552
11, 60198.75, 37700.98, 28445.92, 19740.48, 43252.10, 61314.14, 50291.42, 52301.65, 0.000, 0.000, 0.000, 10:39:57.552
12, 60273.18, 37805.25, 28547.63, 19839.34, 43350.00, 61433.39, 50393.70, 52412.56, 0.000, 0.000, 0.000, 10:39:57.552
13, 60034.53, 37344.69, 28148.47, 19346.89, 42906.27, 61007.25, 49911.04, 52116.46, 0.000, 0.000, 0.000, 10:39:57.552
14, 59941.88, 37193.73, 28004.63, 19200.62, 42765.17, 60846.01, 49761.66, 51981.10, 0.000, 0.000, 0.000, 10:39:57.552
15, 60171.86, 37627.35, 28378.58, 19658.18, 43183.59, 61247.36, 50212.81, 52251.36, 0.160, 0.054, 0.978, 10:39:57.553
16, 60300.60, 37842.73, 28575.38, 19877.21, 43389.25, 61466.09, 50431.64, 52427.33, 0.000, 0.000, 0.000, 10:39:57.553
17, 60095.01, 37435.91, 28225.60, 19441.64, 42995.70, 61092.93, 50004.58, 52184.57, 0.000, 0.000, 0.000, 10:39:57.553
18, 59920.02, 37142.88, 27951.10, 19146.24, 42713.58, 60797.61, 49708.00, 51958.66, 0.000, 0.000, 0.000, 10:39:57.553
19, 60115.30, 37517.83, 28271.27, 19547.52, 43075.18, 61140.82, 50103.87, 52182.63, 0.000, 0.000, 0.000, 10:39:57.554
20, 60302.32, 37839.04, 28573.40, 19880.96, 43385.43, 61461.93, 50434.21, 52425.99, 0.000, 0.000, 0.000, 10:39:57.554
21, 60149.30, 37517.13, 28302.07, 19534.40, 43071.99, 61174.44, 50097.28, 52247.27, 0.000, 0.000, 0.000, 10:39:57.554
22, 59936.96, 37133.98, 27959.64, 19138.26, 42706.40, 60800.79, 49704.31, 51977.50, 0.000, 0.000, 0.000, 10:39:57.554
23, 60080.93, 37422.63, 28201.29, 19454.09, 42986.89, 61057.03, 50010.08, 52132.96, 0.000, 0.000, 0.000, 10:39:57.554
24, 60304.60, 37813.59, 28551.74, 19865.65, 43361.69, 61436.27, 50413.75, 52408.69, 0.000, 0.000, 0.000, 10:39:57.555
25, 60207.19, 37591.30, 28371.18, 19610.66, 43144.88, 61244.87, 50175.60, 52305.52, 0.156, 0.056, 0.980, 10:39:57.555
26, 59958.84, 37137.64, 27965.45, 19134.97, 42708.50, 60807.38, 49703.59, 51991.54, 0.000, 0.000, 0.000, 10:39:57.556
27, 60046.37, 37327.19, 28116.55, 19352.83, 42892.97, 60965.25, 49908.29, 52076.88, 0.000, 0.000, 0.000, 10:39:57.556
28, 60289.56, 37768.16, 28509.83, 19814.40, 43319.22, 61387.57, 50367.26, 52378.29, 0.000, 0.000, 0.000, 10:39:57.556
29, 60248.88, 37653.05, 28424.18, 19679.35, 43205.88, 61299.48, 50244.24, 52349.91, 0.000, 0.000, 0.000, 10:39:57.557
30, 59981.33, 37160.22, 27993.41, 19157.34, 42734.14, 60831.63, 49729.81, 52018.25, 0.000, 0.000, 0.000, 10:39:57.557
31, 59999.10, 37228.39, 28033.98, 19248.43, 42800.97, 60873.05, 49808.47, 52016.71, 0.000, 0.000, 0.000, 10:39:57.557
32, 60250.40, 37693.67, 28439.98, 19740.75, 43247.11, 61311.41, 50290.21, 52318.30, 0.000, 0.000, 0.000, 10:39:57.557
33, 60277.22, 37702.32, 28465.17, 19739.21, 43252.59, 61339.49, 50292.34, 52368.88, 0.000, 0.000, 0.000, 10:39:57.557
34, 60033.07, 37225.31, 28050.95, 19226.81, 42793.24, 60892.48, 49792.11, 52062.44, 0.000, 0.000, 0.000, 10:39:57.557
35, 59993.29, 37175.04, 27989.93, 19185.80, 42745.95, 60821.42, 49746.58, 51987.77, 0.154, 0.056, 0.978, 10:39:57.557
36, 60234.82, 37624.60, 28376.63, 19662.72, 43177.94, 61242.46, 50216.07, 52274.67, 0.000, 0.000, 0.000, 10:39:57.557
37, 60316.67, 37743.51, 28494.70, 19773.58, 43290.32, 61375.79, 50334.18, 52394.14, 0.000, 0.000, 0.000, 10:39:57.557
38, 60080.86, 37282.84, 28098.02, 19277.39, 42846.68, 60948.31, 49850.00, 52108.46, 0.000, 0.000, 0.000, 10:39:57.558
39, 59974.89, 37106.84, 27928.26, 19107.92, 42680.34, 60761.38, 49672.82, 51955.64, 0.000, 0.000, 0.000, 10:39:57.558
40, 60198.36, 37530.54, 28292.61, 19568.55, 43089.89, 61153.81, 50115.09, 52218.23, 0.000, 0.000, 0.000, 10:39:57.558
41, 60346.27, 37773.69, 28518.43, 19810.22, 43322.33, 61399.26, 50362.86, 52413.57, 0.000, 0.000, 0.000, 10:39:57.558
42, 60137.03, 37365.28, 28172.27, 19363.47, 42930.05, 61027.77, 49933.86, 52168.48, 0.000, 0.000, 0.000, 10:39:57.558
43, 59962.82, 37064.46, 27896.23, 19051.91, 42644.24, 60726.54, 49628.56, 51937.36, 0.000, 0.000, 0.000, 10:39:57.558
44, 60155.79, 37430.88, 28216.62, 19452.59, 43002.07, 61063.22, 50015.07, 52154.87, 0.000, 0.000, 0.000, 10:39:57.558
45, 60352.12, 37767.85, 28525.59, 19810.71, 43325.84, 61397.85, 50364.56, 52407.57, 0.150, 0.054, 0.982, 10:39:57.558
46, 60198.18, 37449.88, 28257.83, 19464.23, 43016.29, 61113.64, 50026.62, 52226.70, 0.000, 0.000, 0.000, 10:39:57.558
47, 59980.77, 37057.87, 27904.05, 19054.44, 42640.29, 60729.62, 49622.61, 51942.17, 0.000, 0.000, 0.000, 10:39:57.558
48, 60116.63, 37336.09, 28135.66, 19359.70, 42909.56, 60976.05, 49919.07, 52094.63, 0.000, 0.000, 0.000, 10:39:57.558
49, 60336.05, 37737.66, 28492.46, 19782.90, 43295.51, 61364.32, 50334.99, 52377.36, 0.000, 0.000, 0.000, 10:39:57.558
50, 60244.39, 37531.55, 28326.39, 19555.34, 43094.68, 61189.33, 50115.02, 52287.41, 0.000, 0.000, 0.000, 10:39:57.558
51, 59992.21, 37069.54, 27917.02, 19065.05, 42651.38, 60746.00, 49633.14, 51966.55, 0.000, 0.000, 0.000, 10:39:57.558
52, 60069.62, 37245.56, 28057.43, 19259.56, 42822.54, 60892.79, 49822.19, 52039.80, 0.000, 0.000, 0.000, 10:39:57.558
53, 60317.28, 37700.08, 28459.16, 19738.45, 43259.72, 61325.34, 50292.56, 52343.56, 0.000, 0.000, 0.000, 10:39:57.559
54, 60292.20, 37610.41, 28395.86, 19633.79, 43170.98, 61260.47, 50196.20, 52331.60, 0.152, 0.058, 0.974, 10:39:57.559
55, 60029.47, 37119.05, 27962.70, 19114.05, 42697.82, 60794.29, 49686.16, 52005.58, 0.000, 0.000, 0.000, 10:39:57.559
56, 60034.48, 37170.19, 27984.27, 19183.56, 42746.79, 60816.93, 49744.34, 51992.48, 0.000, 0.000, 0.000, 10:39:57.559
57, 60292.51, 37646.21, 28404.30, 19684.22, 43206.88, 61266.04, 50235.14, 52301.58, 0.000, 0.000, 0.000, 10:39:57.559
58, 60325.57, 37672.25, 28436.87, 19696.27, 43228.21, 61311.08, 50258.16, 52359.43, 0.000, 0.000, 0.000, 10:39:57.559
59, 60060.57, 37184.70, 28012.35, 19172.28, 42758.06, 60854.37, 49746.40, 52043.46, 0.000, 0.000, 0.000, 10:39:57.559
60, 59997.51, 37110.96, 27933.24, 19109.53, 42690.18, 60763.46, 49677.82, 51956.16, 0.000, 0.000, 0.000, 10:39:57.559
61, 60232.54, 37559.38, 28324.31, 19596.82, 43124.67, 61181.59, 50146.54, 52241.57, 0.000, 0.000, 0.000, 10:39:57.559
62, 60330.39, 37709.76, 28472.01, 19751.99, 43268.15, 61344.34, 50301.06, 52383.46, 0.000, 0.000, 0.000, 10:39:57.559
63, 60094.09, 37254.86, 28081.35, 19257.73, 42830.39, 60925.06, 49825.90, 52100.20, 0.000, 0.000, 0.000, 10:39:57.559
64, 59967.36, 37057.36, 27894.22, 19055.80, 42642.12, 60716.19, 49626.88, 51930.32, 0.152, 0.056, 0.976, 10:39:57.559
65, 60179.30, 37467.54, 28244.91, 19501.65, 43038.42, 61093.93, 50056.80, 52180.57, 0.000, 0.000, 0.000, 10:39:57.560
66, 60325.66, 37716.55, 28473.35, 19764.46, 43276.57, 61347.13, 50313.89, 52375.79, 0.000, 0.000, 0.000, 10:39:57.560
67, 60134.10, 37335.19, 28160.02, 19352.45, 42911.50, 61002.42, 49912.85, 52154.53, 0.000, 0.000, 0.000, 10:39:57.560
68, 59954.77, 37030.96, 27879.96, 19035.73, 42620.39, 60697.30, 49603.35, 51922.86, 0.000, 0.000, 0.000, 10:39:57.560
69, 60117.23, 37366.75, 28163.33, 19398.10, 42944.65, 61002.31, 49957.73, 52113.27, 0.000, 0.000, 0.000, 10:39:57.560
70, 60317.45, 37721.81, 28484.30, 19769.42, 43284.53, 61350.86, 50321.87, 52371.45, 0.000, 0.000, 0.000, 10:39:57.560
71, 60177.51, 37430.07, 28243.39, 19447.78, 43001.96, 61092.30, 50011.04, 52216.11, 0.000, 0.000, 0.000, 10:39:57.560
72, 59940.87, 37021.15, 27879.44, 19021.15, 42610.71, 60692.92, 49586.52, 51918.77, 0.000, 0.000, 0.000, 10:39:57.560
73, 60069.20, 37285.97, 28098.40, 19314.46, 42867.27, 60924.13, 49866.27, 52060.41, 0.000, 0.000, 0.000, 10:39:57.560
74, 60307.57, 37711.28, 28477.80, 19764.78, 43276.35, 61334.10, 50308.16, 52359.92, 0.156, 0.056, 0.980, 10:39:57.560
75, 60216.52, 37512.62, 28313.20, 19534.02, 43080.35, 61163.27, 50091.98, 52263.18, 0.000, 0.000, 0.000, 10:39:57.560
76, 59960.74, 37047.97, 27897.44, 19038.25, 42633.29, 60715.85, 49607.88, 51938.01, 0.000, 0.000, 0.000, 10:39:57.560
77, 60024.58, 37200.41, 28018.20, 19219.55, 42782.94, 60842.90, 49775.88, 51998.11, 0.000, 0.000, 0.000, 10:39:57.561
78, 60262.34, 37645.45, 28403.32, 19688.64, 43208.94, 61266.93, 50241.64, 52295.28, 0.000, 0.000, 0.000, 10:39:57.561
79, 60244.95, 37576.34, 28360.70, 19597.92, 43140.05, 61222.52, 50162.52, 52296.89, 0.000, 0.000, 0.000, 10:39:57.561
80, 59977.39, 37085.10, 27933.26, 19072.99, 42669.50, 60756.60, 49647.71, 51972.14, 0.000, 0.000, 0.000, 10:39:57.561
81, 59978.33, 37120.84, 27947.53, 19129.40, 42706.31, 60767.60, 49691.10, 51953.14, 0.000, 0.000, 0.000, 10:39:57.561
82, 60227.24, 37586.09, 28354.28, 19623.89, 43154.27, 61204.95, 50173.96, 52256.12, 0.000, 0.000, 0.000, 10:39:57.561
83, 60274.00, 37637.18, 28414.39, 19666.16, 43200.38, 61273.82, 50221.15, 52332.56, 0.000, 0.000, 0.000, 10:39:57.562
84, 60013.54, 37150.07, 27991.33, 19142.57, 42730.90, 60818.45, 49710.50, 52016.48, 0.156, 0.048, 0.976, 10:39:57.562
85, 59940.80, 37056.91, 27894.46, 19062.28, 42643.44, 60709.08, 49621.45, 51907.88, 0.000, 0.000, 0.000, 10:39:57.562
86, 60175.54, 37504.13, 28279.22, 19538.49, 43074.47, 61126.34, 50089.12, 52187.39, 0.000, 0.000, 0.000, 10:39:57.562
87, 60280.73, 37676.08, 28442.66, 19708.27, 43237.97, 61308.96, 50262.63, 52341.26, 0.000, 0.000, 0.000, 10:39:57.562
88, 60048.14, 37230.25, 28061.00, 19224.47, 42809.82, 60898.53, 49796.36, 52063.29, 0.000, 0.000, 0.000, 10:39:57.562
89, 59922.19, 37022.24, 27865.67, 19016.21, 42613.64, 60683.44, 49589.54, 51889.53, 0.000, 0.000, 0.000, 10:39:57.562
90, 60124.22, 37417.38, 28202.33, 19443.80, 42994.76, 61047.84, 50005.95, 52129.16, 0.000, 0.000, 0.000, 10:39:57.562
91, 60288.82, 37700.33, 28468.07, 19736.05, 43267.12, 61333.27, 50296.03, 52346.24, 0.000, 0.000, 0.000, 10:39:57.562
92, 60105.92, 37333.36, 28151.87, 19338.37, 42910.45, 60998.89, 49907.82, 52131.29, 0.000, 0.000, 0.000, 10:39:57.562
93, 59914.77, 37011.00, 27855.28, 19012.57, 42602.67, 60679.38, 49582.71, 51892.01, 0.154, 0.050, 0.978, 10:39:57.562
94, 60070.27, 37330.09, 28124.69, 19362.11, 42911.88, 60970.17, 49922.66, 52072.50, 0.000, 0.000, 0.000, 10:39:57.562
95, 60268.44, 37694.23, 28453.57, 19743.03, 43260.79, 61327.73, 50300.32, 52336.47, 0.000, 0.000, 0.000, 10:39:57.562
96, 60133.88, 37414.27, 28223.46, 19433.81, 42988.95, 61081.17, 50002.15, 52188.71, 0.000, 0.000, 0.000, 10:39:57.563
97, 59906.18, 37009.14, 27860.69, 19014.65, 42600.19, 60686.41, 49585.02, 51898.76, 0.000, 0.000, 0.000, 10:39:57.563
98, 60018.30, 37247.37, 28058.28, 19268.68, 42829.92, 60892.16, 49834.96, 52014.63, 0.000, 0.000, 0.000, 10:39:57.563
99, 60249.10, 37673.04, 28434.61, 19717.95, 43237.97, 61298.32, 50270.95, 52306.57, 0.000, 0.000, 0.000, 10:39:57.563
100, 60159.23, 37482.82, 28277.37, 19506.43, 43051.54, 61135.73, 50066.34, 52216.64, 0.000, 0.000, 0.000, 10:39:57.563
101, 59907.95, 37021.37, 27864.76, 19015.77, 42606.25, 60693.30, 49588.75, 51901.87, 0.000, 0.000, 0.000, 10:39:57.563
102, 59969.41, 37165.50, 27983.11, 19174.04, 42747.17, 60808.84, 49739.85, 51952.38, 0.000, 0.000, 0.000, 10:39:57.563
103, 60211.84, 37620.58, 28380.50, 19655.27, 43184.53, 61238.50, 50209.53, 52251.98, 0.160, 0.052, 0.976, 10:39:57.563
104, 60203.95, 37564.99, 28348.58, 19587.44, 43130.82, 61209.25, 50147.99, 52261.51, 0.000, 0.000, 0.000, 10:39:57.563
105, 59936.36, 37075.75, 27917.39, 19068.00, 42661.14, 60746.65, 49635.60, 51931.06, 0.000, 0.000, 0.000, 10:39:58.031
106, 59923.04, 37087.82, 27913.33, 19096.19, 42675.63, 60737.33, 49654.84, 51896.41, 0.000, 0.000, 0.000, 10:39:58.031
107, 60159.61, 37537.59, 28308.53, 19575.70, 43110.05, 61159.02, 50123.29, 52188.37, 0.000, 0.000, 0.000, 10:39:58.031
108, 60222.08, 37608.06, 28388.59, 19636.68, 43175.88, 61247.38, 50194.91, 52286.20, 0.000, 0.000, 0.000, 10:39:58.031
109, 59967.05, 37127.34, 27973.19, 19128.15, 42713.98, 60799.05, 49692.98, 51982.31, 0.000, 0.000, 0.000, 10:39:58.031
110, 59883.05, 37009.55, 27856.44, 19018.00, 42602.82, 60667.39, 49577.93, 51861.97, 0.000, 0.000, 0.000, 10:39:58.031
111, 60099.52, 37431.26, 28216.71, 19463.32, 43008.55, 61059.51, 50020.50, 52121.29, 0.000, 0.000, 0.000, 10:39:58.031
112, 60216.52, 37615.66, 28395.12, 19654.31, 43183.59, 61254.24, 50210.80, 52279.30, 0.000, 0.000, 0.000, 10:39:58.032
113, 59995.75, 37184.65, 28030.58, 19187.63, 42768.70, 60857.99, 49757.64, 52007.32, 0.160, 0.058, 0.974, 10:39:58.032
114, 59858.89, 36958.96, 27816.50, 18963.40, 42553.00, 60626.91, 49529.34, 51819.86, 0.000, 0.000, 0.000, 10:39:58.032
115, 60054.13, 37332.17, 28129.98, 19366.85, 42913.02, 60968.25, 49921.01, 52041.70, 0.000, 0.000, 0.000, 10:39:58.032
116, 60225.30, 37622.61, 28392.62, 19668.24, 43190.12, 61257.10, 50219.03, 52269.62, 0.000, 0.000, 0.000, 10:39:58.032
117, 60054.17, 37275.78, 28096.57, 19286.31, 42853.41, 60942.16, 49850.78, 52072.81, 0.000, 0.000, 0.000, 10:39:58.032
118, 59865.57, 36947.39, 27792.85, 18944.02, 42537.02, 60615.71, 49513.71, 51829.20, 0.000, 0.000, 0.000, 10:39:58.032
119, 60011.46, 37235.66, 28036.98, 19261.41, 42818.21, 60875.27, 49818.04, 51993.64, 0.000, 0.000, 0.000, 10:39:58.032
120, 60226.53, 37604.53, 28371.29, 19653.51, 43173.18, 61235.44, 50200.63, 52265.62, 0.000, 0.000, 0.000, 10:39:58.032
121, 60097.04, 37335.44, 28149.47, 19357.86, 42912.62, 60999.34, 49915.63, 52122.88, 0.000, 0.000, 0.000, 10:39:58.032
122, 59863.25, 36930.96, 27783.06, 18936.80, 42523.43, 60605.43, 49498.52, 51829.71, 0.000, 0.000, 0.000, 10:39:58.032
123, 59978.02, 37141.54, 27954.23, 19161.55, 42726.09, 60788.56, 49720.65, 51938.61, 0.156, 0.060, 0.976, 10:39:58.032
124, 60224.79, 37560.70, 28334.28, 19602.03, 43131.69, 61188.70, 50148.62, 52226.32, 0.000, 0.000, 0.000, 10:39:58.033
125, 60152.36, 37409.09, 28216.75, 19428.27, 42984.41, 61062.57, 49984.02, 52160.99, 0.000, 0.000, 0.000, 10:39:58.033
126, 59886.16, 36962.92, 27813.64, 18950.86, 42550.97, 60630.69, 49518.63, 51844.31, 0.000, 0.000, 0.000, 10:39:58.033
127, 59930.70, 37060.84, 27885.19, 19058.06, 42645.85, 60707.02, 49622.26, 51873.88, 0.000, 0.000, 0.000, 10:39:58.033
128, 60187.52, 37494.29, 28273.03, 19514.01, 43065.26, 61121.54, 50069.43, 52172.68, 0.000, 0.000, 0.000, 10:39:58.033
129, 60182.27, 37448.74, 28251.31, 19464.10, 43020.58, 61098.45, 50021.84, 52188.48, 0.000, 0.000, 0.000, 10:39:58.033
130, 59926.21, 36985.86, 27842.18, 18978.17, 42575.78, 60661.54, 49547.13, 51880.92, 0.000, 0.000, 0.000, 10:39:58.033
131, 59914.21, 36978.57, 27821.08, 18983.47, 42571.04, 60636.88, 49546.24, 51843.37, 0.000, 0.000, 0.000, 10:39:58.033
132, 60153.32, 37396.25, 28189.44, 19429.83, 42975.81, 61029.52, 49978.70, 52120.22, 0.160, 0.054, 0.978, 10:39:58.033
133, 60220.31, 37476.45, 28272.45, 19512.42, 43052.97, 61126.21, 50061.71, 52219.91, 0.000, 0.000, 0.000, 10:39:58.033
134, 59972.07, 37030.04, 27888.56, 19043.98, 42626.30, 60711.27, 49598.92, 51923.97, 0.000, 0.000, 0.000, 10:39:58.033
135, 59891.90, 36909.32, 27769.56, 18924.06, 42510.63, 60579.84, 49481.46, 51806.40, 0.000, 0.000, 0.000, 10:39:58.033
136, 60117.92, 37304.01, 28113.44, 19331.64, 42892.86, 60947.21, 49889.63, 52061.64, 0.000, 0.000, 0.000, 10:39:58.034
137, 60242.91, 37498.00, 28294.29, 19521.88, 43076.39, 61144.34, 50083.80, 52225.12, 0.000, 0.000, 0.000, 10:39:58.034
138, 60021.16, 37096.12, 27945.04, 19098.40, 42686.93, 60772.47, 49665.60, 51969.57, 0.000, 0.000, 0.000, 10:39:58.034
139, 59878.71, 36867.95, 27732.61, 18872.92, 42468.13, 60539.65, 49436.20, 51788.30, 0.000, 0.000, 0.000, 10:39:58.034
140, 60062.91, 37199.43, 28019.36, 19227.08, 42788.75, 60843.19, 49781.60, 51985.98, 0.000, 0.000, 0.000, 10:39:58.034
141, 60243.18, 37486.45, 28282.04, 19520.87, 43063.11, 61128.29, 50076.69, 52207.82, 0.000, 0.000, 0.000, 10:39:58.034
142, 60073.55, 37165.61, 28006.71, 19173.04, 42751.80, 60835.99, 49737.10, 52009.11, 0.156, 0.052, 0.984, 10:39:58.034
143, 59880.07, 36851.45, 27716.86, 18844.80, 42449.96, 60524.79, 49411.26, 51770.82, 0.000, 0.000, 0.000, 10:39:58.034
144, 60013.70, 37113.24, 27939.48, 19122.83, 42706.00, 60758.61, 49680.24, 51917.76, 0.000, 0.000, 0.000, 10:39:58.034
145, 60225.43, 37471.43, 28264.07, 19504.09, 43052.63, 61107.10, 50050.45, 52180.73, 0.000, 0.000, 0.000, 10:39:58.034
146, 60098.79, 37225.38, 28056.38, 19236.27, 42812.82, 60889.88, 49792.00, 52041.41, 0.000, 0.000, 0.000, 10:39:58.034
147, 59873.84, 36840.88, 27717.26, 18830.34, 42444.08, 60517.50, 49397.98, 51765.18, 0.000, 0.000, 0.000, 10:39:58.035
148, 59964.01, 37020.39, 27867.44, 19023.70, 42619.59, 60673.12, 49585.24, 51858.08, 0.000, 0.000, 0.000, 10:39:58.035
149, 60192.98, 37419.46, 28219.88, 19444.03, 43002.96, 61055.09, 49998.53, 52140.27, 0.000, 0.000, 0.000, 10:39:58.035
150, 60134.26, 37284.96, 28113.55, 19297.89, 42869.80, 60945.61, 49855.50, 52085.60, 0.000, 0.000, 0.000, 10:39:58.035
151, 59882.47, 36852.01, 27728.88, 18835.32, 42451.17, 60532.12, 49407.77, 51779.58, 0.000, 0.000, 0.000, 10:39:58.035
152, 59919.01, 36942.16, 27794.46, 18938.61, 42538.74, 60599.73, 49503.99, 51798.20, 0.156, 0.054, 0.984, 10:39:58.035
153, 60174.09, 37381.97, 28184.28, 19404.20, 42964.43, 61016.10, 49960.35, 52097.69, 0.000, 0.000, 0.000, 10:39:58.035
154, 60179.54, 37356.18, 28175.42, 19372.95, 42937.68, 61011.90, 49932.59, 52119.19, 0.000, 0.000, 0.000, 10:39:58.035
155, 59924.09, 36903.09, 27774.43, 18894.58, 42501.64, 60584.49, 49465.14, 51814.49, 0.000, 0.000, 0.000, 10:39:58.035
156, 59892.52, 36874.95, 27731.41, 18879.33, 42475.00, 60540.66, 49443.42, 51758.88, 0.000, 0.000, 0.000, 10:39:58.035
157, 60116.16, 37282.80, 28091.54, 19312.60, 42870.15, 60922.05, 49864.13, 52022.52, 0.000, 0.000, 0.000, 10:39:58.035
158, 60188.21, 37384.68, 28197.48, 19418.01, 42966.91, 61035.37, 49963.59, 52129.27, 0.000, 0.000, 0.000, 10:39:58.035
159, 59955.02, 36958.30, 27819.56, 18955.93, 42554.01, 60636.75, 49520.45, 51852.18, 0.000, 0.000, 0.000, 10:39:58.036
160, 59865.57, 36824.36, 27693.10, 18824.93, 42429.27, 60497.14, 49391.74, 51735.26, 0.000, 0.000, 0.000, 10:39:58.036
161, 60066.13, 37191.13, 28013.02, 19214.79, 42784.39, 60837.78, 49772.95, 51962.37, 0.000, 0.000, 0.000, 10:39:58.036
162, 60198.70, 37397.24, 28204.28, 19427.80, 42979.81, 61045.36, 49980.62, 52130.37, 0.156, 0.054, 0.978, 10:39:58.036
163, 59993.67, 37015.52, 27873.14, 19021.09, 42609.20, 60690.44, 49576.52, 51889.08, 0.000, 0.000, 0.000, 10:39:58.036
164, 59837.92, 36768.75, 27639.03, 18759.33, 42370.86, 60438.18, 49322.50, 51686.35, 0.000, 0.000, 0.000, 10:39:58.036
165, 60013.71, 37092.11, 27913.17, 19099.90, 42682.96, 60731.07, 49656.97, 51881.95, 0.000, 0.000, 0.000, 10:39:58.036
166, 60194.68, 37390.49, 28184.39, 19410.28, 42968.10, 61024.60, 49961.49, 52111.77, 0.000, 0.000, 0.000, 10:39:58.036
167, 60029.16, 37073.96, 27915.79, 19069.88, 42661.88, 60738.94, 49627.91, 51924.26, 0.000, 0.000, 0.000, 10:39:58.036
168, 59839.66, 36744.32, 27614.19, 18729.31, 42344.21, 60413.79, 49292.79, 51679.69, 0.000, 0.000, 0.000, 10:39:58.036
169, 59977.06, 36992.80, 27833.40, 18997.37, 42589.66, 60638.00, 49552.56, 51820.57, 0.000, 0.000, 0.000, 10:39:58.036
170, 60191.23, 37354.32, 28158.88, 19376.37, 42938.77, 60989.44, 49923.94, 52085.11, 0.000, 0.000, 0.000, 10:39:58.036
171, 60076.10, 37118.04, 27962.25, 19119.88, 42710.29, 60782.21, 49672.88, 51955.98, 0.000, 0.000, 0.000, 10:39:58.036
172, 59849.34, 36717.01, 27601.79, 18688.87, 42324.84, 60393.29, 49260.61, 51665.83, 0.154, 0.054, 0.978, 10:39:58.036
173, 59930.93, 36873.80, 27729.28, 18861.50, 42477.90, 60526.27, 49427.77, 51742.01, 0.000, 0.000, 0.000, 10:39:58.037
174, 60169.73, 37286.38, 28096.16, 19303.39, 42876.07, 60921.00, 49857.66, 52032.49, 0.000, 0.000, 0.000, 10:39:58.037
175, 60125.72, 37164.85, 28002.20, 19168.99, 42757.61, 60826.98, 49730.64, 51991.23, 0.000, 0.000, 0.000, 10:39:58.037
176, 59886.54, 36737.64, 27623.25, 18724.82, 42346.07, 60420.70, 49289.55, 51702.46, 0.000, 0.000, 0.000, 10:39:58.037
177, 59913.34, 36805.66, 27671.64, 18806.80, 42412.86, 60468.22, 49363.67, 51716.82, 0.000, 0.000, 0.000, 10:39:58.037
178, 60164.43, 37245.65, 28071.35, 19272.68, 42842.41, 60887.11, 49820.36, 52020.69, 0.000, 0.000, 0.000, 10:39:58.037
179, 60185.67, 37246.75, 28083.80, 19266.89, 42841.43, 60907.43, 49818.86, 52065.66, 0.000, 0.000, 0.000, 10:39:58.037
180, 59936.40, 36803.46, 27691.60, 18797.95, 42412.52, 60488.82, 49360.54, 51767.64, 0.000, 0.000, 0.000, 10:39:58.037
181, 59896.88, 36760.68, 27640.48, 18763.19, 42373.32, 60432.21, 49322.90, 51704.30, 0.156, 0.054, 0.980, 10:39:58.037
182, 60133.54, 37183.00, 28011.18, 19202.05, 42782.51, 60827.34, 49759.07, 51975.85, 0.000, 0.000, 0.000, 10:39:58.037
183, 60224.74, 37306.47, 28132.29, 19318.79, 42899.95, 60964.63, 49882.74, 52100.86, 0.000, 0.000, 0.000, 10:39:58.037
184, 59989.80, 36885.32, 27764.11, 18868.92, 42493.53, 60570.39, 49441.66, 51820.46, 0.000, 0.000, 0.000, 10:39:58.039
185, 59882.76, 36733.70, 27614.64, 18720.01, 42346.41, 60406.50, 49285.01, 51675.96, 0.000, 0.000, 0.000, 10:39:58.040
186, 60082.36, 37103.80, 27935.19, 19110.83, 42704.04, 60749.67, 49670.00, 51906.31, 0.000, 0.000, 0.000, 10:39:58.040
187, 60214.55, 37317.27, 28135.64, 19335.51, 42908.71, 60967.38, 49891.64, 52085.33, 0.000, 0.000, 0.000, 10:39:58.040
188, 60002.88, 36930.20, 27796.05, 18931.08, 42533.16, 60609.82, 49490.58, 51845.52, 0.000, 0.000, 0.000, 10:39:58.040
189, 59838.88, 36667.14, 27557.44, 18669.61, 42281.59, 60347.23, 49227.30, 51643.32, 0.000, 0.000, 0.000, 10:39:58.040
190, 60002.34, 36975.17, 27826.42, 18994.98, 42582.57, 60628.75, 49549.52, 51830.74, 0.000, 0.000, 0.000, 10:39:58.040
191, 60196.75, 37295.52, 28114.74, 19321.38, 42888.59, 60942.72, 49877.11, 52073.10, 0.160, 0.052, 0.974, 10:39:58.040
192, 60039.15, 36994.80, 27862.48, 18990.42, 42597.06, 60671.37, 49558.69, 51893.66, 0.000, 0.000, 0.000, 10:39:58.040
193, 59838.25, 36657.84, 27557.49, 18643.54, 42273.59, 60341.82, 49216.53, 51642.27, 0.000, 0.000, 0.000, 10:39:58.040
194, 59972.59, 36904.90, 27767.64, 18919.50, 42514.94, 60562.70, 49473.48, 51776.32, 0.000, 0.000, 0.000, 10:39:58.040
195, 60206.79, 37298.31, 28121.15, 19331.69, 42893.09, 60940.84, 49876.93, 52057.34, 0.000, 0.000, 0.000, 10:39:58.040
196, 60106.14, 37098.84, 27958.99, 19097.06, 42699.56, 60765.03, 49659.56, 51951.58, 0.000, 0.000, 0.000, 10:39:58.041
197, 59869.12, 36706.77, 27608.29, 18684.96, 42322.89, 60383.37, 49252.27, 51666.23, 0.000, 0.000, 0.000, 10:39:58.041
198, 59935.71, 36857.82, 27731.65, 18849.16, 42471.53, 60510.33, 49408.89, 51735.08, 0.000, 0.000, 0.000, 10:39:58.041
199, 60184.80, 37291.94, 28116.86, 19302.72, 42889.22, 60924.33, 49858.89, 52040.18, 0.000, 0.000, 0.000, 10:39:58.041
200, 60138.62, 37187.16, 28030.99, 19182.00, 42783.61, 60845.04, 49749.89, 52006.94, 0.000, 0.000, 0.000, 10:39:58.041
201, 59886.67, 36764.95, 27661.27, 18743.32, 42377.27, 60444.48, 49316.86, 51713.08, 0.158, 0.052, 0.976, 10:39:58.041
202, 59900.80, 36817.01, 27697.68, 18813.15, 42430.09, 60480.96, 49380.88, 51714.54, 0.000, 0.000, 0.000, 10:39:58.041
203, 60161.28, 37264.00, 28090.42, 19291.97, 42860.12, 60906.22, 49848.43, 52028.02, 0.000, 0.000, 0.000, 10:39:58.041
204, 60173.75, 37272.32, 28109.42, 19297.62, 42865.37, 60934.52, 49855.81, 52070.20, 0.000, 0.000, 0.000, 10:39:58.041
205, 59912.35, 36833.24, 27717.75, 18841.71, 42438.88, 60518.84, 49404.64, 51771.29, 0.000, 0.000, 0.000, 10:39:58.041
206, 59856.88, 36773.83, 27651.54, 18786.57, 42382.24, 60447.03, 49350.86, 51702.11, 0.000, 0.000, 0.000, 10:39:58.041
207, 60096.11, 37188.59, 28015.92, 19223.26, 42784.28, 60837.98, 49783.19, 51975.94, 0.000, 0.000, 0.000, 10:39:58.041
208, 60196.84, 37329.42, 28151.28, 19361.10, 42916.71, 60988.21, 49921.86, 52105.80, 0.000, 0.000, 0.000, 10:39:58.042
209, 59958.35, 36928.86, 27795.91, 18935.57, 42526.20, 60609.93, 49504.39, 51833.16, 0.000, 0.000, 0.000, 10:39:58.042
210, 59835.26, 36769.40, 27642.74, 18774.26, 42372.98, 60443.63, 49343.24, 51683.56, 0.000, 0.000, 0.000, 10:39:58.042
211, 60038.77, 37144.39, 27961.94, 19168.19, 42735.73, 60791.91, 49731.54, 51931.35, 0.160, 0.058, 0.978, 10:39:58.042
212, 60177.51, 37386.89, 28189.37, 19417.76, 42970.69, 61038.16, 49980.69, 52131.66, 0.000, 0.000, 0.000, 10:39:58.042
213, 59957.17, 37028.97, 27878.57, 19046.37, 42624.24, 60708.45, 49614.30, 51897.64, 0.000, 0.000, 0.000, 10:39:58.042
214, 59778.91, 36776.91, 27641.75, 18795.09, 42380.27, 60457.53, 49362.35, 51693.21, 0.000, 0.000, 0.000, 10:39:58.042
215, 59945.95, 37086.01, 27912.25, 19123.08, 42683.29, 60744.66, 49685.27, 51888.97, 0.000, 0.000, 0.000, 10:39:58.042
216, 60144.59, 37409.53, 28212.21, 19465.08, 42998.12, 61066.08, 50020.90, 52144.18, 0.000, 0.000, 0.000, 10:39:58.042
217, 59981.04, 37121.17, 27969.88, 19166.62, 42721.18, 60807.05, 49723.55, 51969.39, 0.000, 0.000, 0.000, 10:39:58.042
218, 59753.95, 36775.10, 27657.67, 18814.29, 42388.92, 60468.75, 49369.88, 51701.93, 0.000, 0.000, 0.000, 10:39:58.043
219, 59874.09, 36995.02, 27844.75, 19040.71, 42604.05, 60665.89, 49598.32, 51827.68, 0.000, 0.000, 0.000, 10:39:58.043
220, 60113.34, 37380.18, 28195.00, 19435.38, 42975.77, 61038.93, 49994.79, 52110.79, 0.156, 0.064, 0.976, 10:39:58.043
221, 59996.91, 37167.69, 28016.53, 19203.19, 42769.41, 60852.04, 49769.38, 51984.37, 0.000, 0.000, 0.000, 10:39:58.043
222, 59747.13, 36761.49, 27640.17, 18787.22, 42373.16, 60457.36, 49351.46, 51685.37, 0.000, 0.000, 0.000, 10:39:58.043
223, 59821.94, 36889.47, 27748.55, 18924.10, 42498.33, 60565.83, 49481.71, 51751.30, 0.000, 0.000, 0.000, 10:39:58.043
224, 60086.16, 37303.68, 28120.57, 19348.36, 42899.75, 60960.38, 49902.48, 52049.63, 0.000, 0.000, 0.000, 10:39:58.043
225, 60044.50, 37195.27, 28031.17, 19221.90, 42792.19, 60870.39, 49781.63, 52006.99, 0.000, 0.000, 0.000, 10:39:58.511
226, 59784.32, 36766.07, 27647.52, 18774.71, 42377.74, 60458.70, 49337.94, 51706.40, 0.000, 0.000, 0.000, 10:39:58.511
227, 59799.16, 36798.55, 27663.26, 18819.74, 42410.55, 60474.16, 49374.09, 51701.95, 0.000, 0.000, 0.000, 10:39:58.511
228, 60060.25, 37222.83, 28044.60, 19259.89, 42824.82, 60877.05, 49811.00, 52002.18, 0.000, 0.000, 0.000, 10:39:58.511
229, 60087.48, 37236.95, 28074.59, 19262.13, 42839.93, 60909.46, 49821.59, 52055.73, 0.000, 0.000, 0.000, 10:39:58.511
230, 59833.36, 36811.27, 27698.91, 18815.90, 42428.82, 60505.34, 49382.11, 51762.82, 0.152, 0.060, 0.974, 10:39:58.511
231, 59781.55, 36736.27, 27620.56, 18732.66, 42356.60, 60418.55, 49307.21, 51678.64, 0.000, 0.000, 0.000, 10:39:58.511
232, 60024.73, 37131.36, 27969.36, 19149.03, 42738.07, 60789.10, 49716.83, 51948.80, 0.000, 0.000, 0.000, 10:39:58.511
233, 60127.40, 37262.30, 28093.66, 19280.41, 42860.95, 60928.73, 49846.09, 52075.32, 0.000, 0.000, 0.000, 10:39:58.511
234, 59896.73, 36861.96, 27747.70, 18852.91, 42474.50, 60551.93, 49426.03, 51800.41, 0.000, 0.000, 0.000, 10:39:58.512
235, 59775.85, 36675.12, 27564.93, 18665.29, 42291.18, 60356.19, 49231.86, 51632.39, 0.000, 0.000, 0.000, 10:39:58.512
236, 59996.42, 37031.88, 27879.46, 19039.73, 42639.21, 60687.35, 49598.83, 51871.60, 0.000, 0.000, 0.000, 10:39:58.512
237, 60171.23, 37276.72, 28110.29, 19296.44, 42875.47, 60936.38, 49850.07, 52080.57, 0.000, 0.000, 0.000, 10:39:58.512
238, 59960.21, 36909.17, 27790.77, 18895.11, 42520.19, 60597.05, 49469.48, 51841.14, 0.000, 0.000, 0.000, 10:39:58.512
239, 59776.90, 36623.49, 27526.13, 18604.68, 42245.15, 60313.39, 49180.39, 51614.33, 0.000, 0.000, 0.000, 10:39:58.512
240, 59946.10, 36900.70, 27766.19, 18903.58, 42516.32, 60565.69, 49467.63, 51785.64, 0.154, 0.054, 0.978, 10:39:58.512
241, 60174.61, 37234.81, 28074.19, 19250.08, 42839.80, 60892.52, 49809.86, 52052.70, 0.000, 0.000, 0.000, 10:39:58.513
242, 60032.85, 36958.63, 27836.39, 18941.78, 42571.09, 60640.17, 49519.33, 51895.27, 0.000, 0.000, 0.000, 10:39:58.513
243, 59813.38, 36603.53, 27515.18, 18570.48, 42229.06, 60292.51, 49155.48, 51628.46, 0.000, 0.000, 0.000, 10:39:58.513
244, 59936.00, 36811.45, 27697.65, 18800.81, 42436.21, 60480.02, 49370.49, 51746.48, 0.000, 0.000, 0.000, 10:39:58.513
245, 60189.91, 37208.75, 28055.44, 19225.58, 42821.76, 60867.06, 49781.22, 52045.72, 0.000, 0.000, 0.000, 10:39:58.513
246, 60104.96, 37024.84, 27902.20, 19018.83, 42642.28, 60709.08, 49589.82, 51949.57, 0.000, 0.000, 0.000, 10:39:58.513
247, 59866.48, 36624.92, 27541.06, 18607.56, 42254.47, 60324.81, 49183.76, 51659.51, 0.000, 0.000, 0.000, 10:39:58.513
248, 59929.47, 36735.43, 27630.06, 18728.30, 42364.09, 60416.90, 49302.71, 51706.96, 0.000, 0.000, 0.000, 10:39:58.513
249, 60213.41, 37181.75, 28032.42, 19190.60, 42797.22, 60844.31, 49763.27, 52035.93, 0.000, 0.000, 0.000, 10:39:58.513
250, 60189.09, 37103.49, 27975.35, 19093.04, 42718.83, 60785.86, 49673.13, 52016.89, 0.154, 0.056, 0.974, 10:39:58.514
251, 59939.15, 36685.27, 27601.07, 18652.66, 42314.38, 60385.70, 49240.98, 51725.20, 0.000, 0.000, 0.000, 10:39:58.514
252, 59935.08, 36708.07, 27606.21, 18690.53, 42337.38, 60390.88, 49267.07, 51711.99, 0.000, 0.000, 0.000, 10:39:58.514
253, 60200.24, 37157.65, 28006.44, 19175.87, 42772.12, 60816.84, 49731.96, 52028.94, 0.000, 0.000, 0.000, 10:39:58.514
254, 60237.43, 37190.38, 28047.06, 19197.94, 42801.33, 60866.23, 49761.26, 52089.31, 0.000, 0.000, 0.000, 10:39:58.514
255, 59995.34, 36774.77, 27690.97, 18759.01, 42403.18, 60474.77, 49333.11, 51814.61, 0.000, 0.000, 0.000, 10:39:58.514
0, 59929.85, 36689.61, 27605.59, 18669.63, 42323.23, 60376.84, 49247.80, 51726.25, 0.000, 0.000, 0.000, 10:39:58.514
1, 60167.45, 37103.18, 27969.72, 19105.73, 42725.87, 60764.31, 49676.30, 52011.34, 0.000, 0.000, 0.000, 10:39:58.514
2, 60277.80, 37257.96, 28120.01, 19261.68, 42875.25, 60930.77, 49829.10, 52155.54, 0.000, 0.000, 0.000, 10:39:58.514
3, 60037.92, 36844.19, 27753.58, 18821.51, 42474.64, 60544.01, 49398.98, 51877.12, 0.000, 0.000, 0.000, 10:39:58.514
4, 59903.23, 36639.11, 27557.44, 18618.00, 42277.41, 60333.55, 49191.25, 51703.76, 0.158, 0.056, 0.984, 10:39:58.514
5, 60104.71, 36990.75, 27866.84, 18997.95, 42621.40, 60661.61, 49560.45, 51936.13, 0.000, 0.000, 0.000, 10:39:58.515
6, 60288.20, 37259.84, 28118.07, 19268.61, 42878.49, 60932.21, 49834.31, 52162.09, 0.000, 0.000, 0.000, 10:39:58.515
7, 60094.45, 36903.15, 27802.80, 18889.97, 42529.69, 60601.79, 49460.56, 51938.70, 0.000, 0.000, 0.000, 10:39:58.515
8, 59907.99, 36601.18, 27523.76, 18581.14, 42237.66, 60300.96, 49151.46, 51700.01, 0.000, 0.000, 0.000, 10:39:58.515
9, 60072.19, 36880.87, 27771.04, 18869.41, 42511.63, 60557.09, 49442.91, 51873.28, 0.000, 0.000, 0.000, 10:39:58.515
10, 60298.68, 37221.69, 28084.79, 19227.44, 42840.98, 60894.04, 49794.99, 52145.86, 0.000, 0.000, 0.000, 10:39:58.515
11, 60151.87, 36933.91, 27842.58, 18909.04, 42562.82, 60632.30, 49489.51, 51977.37, 0.000, 0.000, 0.000, 10:39:58.515
12, 59923.95, 36554.85, 27498.70, 18512.29, 42198.04, 60258.96, 49096.34, 51693.77, 0.000, 0.000, 0.000, 10:39:58.515
13, 60039.76, 36750.25, 27661.24, 18731.74, 42390.73, 60430.80, 49300.44, 51797.89, 0.158, 0.048, 0.976, 10:39:58.515
14, 60311.66, 37170.79, 28047.48, 19173.04, 42800.55, 60840.46, 49734.51, 52116.15, 0.000, 0.000, 0.000, 10:39:58.515
15, 60232.16, 36985.72, 27898.11, 18963.02, 42622.03, 60679.66, 49533.77, 52028.09, 0.000, 0.000, 0.000, 10:39:58.515
16, 59984.46, 36555.56, 27506.64, 18510.17, 42205.84, 60262.78, 49090.87, 51722.47, 0.000, 0.000, 0.000, 10:39:58.516
17, 60032.85, 36645.95, 27578.77, 18617.08, 42295.91, 60332.81, 49185.32, 51753.83, 0.000, 0.000, 0.000, 10:39:58.516
18, 60313.01, 37095.20, 27984.94, 19087.56, 42732.69, 60764.80, 49650.20, 52087.50, 0.000, 0.000, 0.000, 10:39:58.516
19, 60301.54, 37022.09, 27935.79, 18995.54, 42663.09, 60715.56, 49570.20, 52086.83, 0.000, 0.000, 0.000, 10:39:58.516
20, 60042.33, 36569.98, 27536.81, 18527.38, 42228.46, 60286.96, 49105.73, 51777.01, 0.000, 0.000, 0.000, 10:39:58.516
21, 60022.03, 36560.50, 27515.42, 18535.27, 42222.58, 60261.46, 49101.82, 51738.16, 0.000, 0.000, 0.000, 10:39:58.516
22, 60290.32, 37022.15, 27923.61, 19026.30, 42671.04, 60699.20, 49585.02, 52063.83, 0.000, 0.000, 0.000, 10:39:58.516
23, 60328.50, 37066.48, 27978.95, 19056.67, 42713.82, 60761.18, 49626.70, 52137.25, 0.154, 0.056, 0.970, 10:39:58.516
24, 60066.80, 36624.61, 27589.32, 18584.11, 42286.62, 60344.99, 49168.88, 51840.71, 0.000, 0.000, 0.000, 10:39:58.517
25, 59966.84, 36503.26, 27467.48, 18469.42, 42171.13, 60212.67, 49048.53, 51715.25, 0.000, 0.000, 0.000, 10:39:58.517
26, 60196.13, 36932.99, 27843.88, 18932.62, 42590.13, 60616.12, 49498.25, 51997.91, 0.000, 0.000, 0.000, 10:39:58.517
27, 60299.73, 37100.79, 28009.53, 19105.11, 42753.81, 60799.34, 49670.80, 52159.96, 0.000, 0.000, 0.000, 10:39:58.517
28, 60054.96, 36683.52, 27640.35, 18661.87, 42349.36, 60409.36, 49235.26, 51892.77, 0.000, 0.000, 0.000, 10:39:58.518
29, 59901.33, 36456.21, 27422.73, 18431.87, 42131.38, 60177.06, 49003.43, 51705.24, 0.000, 0.000, 0.000, 10:39:58.518
30, 60095.77, 36826.04, 27749.51, 18821.22, 42495.63, 60520.72, 49389.55, 51943.46, 0.000, 0.000, 0.000, 10:39:58.518
31, 60268.30, 37111.29, 28012.05, 19110.12, 42770.93, 60807.61, 49678.07, 52175.96, 0.000, 0.000, 0.000, 10:39:58.518
32, 60073.11, 36749.13, 27700.85, 18727.56, 42420.95, 60476.06, 49299.77, 51959.22, 0.000, 0.000, 0.000, 10:39:58.518
33, 59866.15, 36413.81, 27393.25, 18374.47, 42097.59, 60144.03, 48958.54, 51707.59, 0.150, 0.050, 0.972, 10:39:58.518
34, 60011.32, 36702.66, 27636.34, 18684.89, 42379.33, 60403.78, 49257.16, 51874.17, 0.000, 0.000, 0.000, 10:39:58.518
35, 60252.68, 37090.44, 27989.95, 19087.74, 42755.06, 60786.64, 49653.57, 52176.43, 0.000, 0.000, 0.000, 10:39:58.518
36, 60095.86, 36787.95, 27732.41, 18751.30, 42461.92, 60513.10, 49332.20, 52005.98, 0.000, 0.000, 0.000, 10:39:58.518
37, 59838.84, 36360.54, 27346.78, 18308.67, 42050.94, 60096.53, 48893.46, 51696.52, 0.000, 0.000, 0.000, 10:39:58.518
38, 59932.67, 36549.35, 27503.17, 18525.19, 42236.55, 60260.61, 49094.96, 51798.94, 0.000, 0.000, 0.000, 10:39:58.519
39, 60196.87, 36989.79, 27895.04, 18992.95, 42660.49, 60686.23, 49551.43, 52128.69, 0.000, 0.000, 0.000, 10:39:58.519
40, 60110.63, 36794.59, 27747.90, 18769.38, 42474.97, 60521.73, 49339.38, 52040.34, 0.000, 0.000, 0.000, 10:39:58.519
41, 59844.04, 36322.86, 27325.63, 18272.26, 42020.12, 60066.24, 48851.37, 51711.47, 0.000, 0.000, 0.000, 10:39:58.519
42, 59875.67, 36404.82, 27380.95, 18365.51, 42100.61, 60122.64, 48940.75, 51725.11, 0.000, 0.000, 0.000, 10:39:58.519
43, 60160.95, 36889.52, 27815.05, 18881.01, 42570.95, 60586.61, 49448.90, 52066.87, 0.152, 0.048, 0.970, 10:39:58.519
44, 60155.34, 36827.09, 27777.65, 18809.48, 42511.86, 60551.07, 49378.45, 52065.84, 0.000, 0.000, 0.000, 10:39:58.519
45, 59904.55, 36366.15, 27371.12, 18324.72, 42067.28, 60114.84, 48903.92, 51762.86, 0.000, 0.000, 0.000, 10:39:58.519
46, 59876.59, 36347.71, 27336.94, 18320.45, 42049.84, 60073.62, 48888.72, 51705.15, 0.000, 0.000, 0.000, 10:39:58.519
47, 60146.39, 36840.77, 27770.07, 18840.64, 42525.40, 60534.96, 49398.94, 52029.14, 0.000, 0.000, 0.000, 10:39:58.519
48, 60215.44, 36922.15, 27858.01, 18905.73, 42602.11, 60632.99, 49477.02, 52119.41, 0.000, 0.000, 0.000, 10:39:58.519
49, 59962.64, 36473.26, 27462.27, 18421.66, 42166.83, 60209.94, 49012.41, 51816.28, 0.000, 0.000, 0.000, 10:39:58.519
50, 59852.34, 36339.69, 27322.73, 18293.99, 42037.24, 60063.11, 48879.55, 51673.68, 0.000, 0.000, 0.000, 10:39:58.520
51, 60095.32, 36803.84, 27730.45, 18797.32, 42486.53, 60496.58, 49367.34, 51973.86, 0.000, 0.000, 0.000, 10:39:58.520
52, 60221.81, 37013.82, 27927.19, 19009.96, 42687.16, 60715.85, 49580.39, 52153.26, 0.152, 0.048, 0.972, 10:39:58.520
53, 59988.37, 36612.09, 27576.26, 18582.26, 42298.75, 60342.38, 49159.57, 51897.04, 0.000, 0.000, 0.000, 10:39:58.520
54, 59816.86, 36364.01, 27340.45, 18330.62, 42059.77, 60091.12, 48908.72, 51692.83, 0.000, 0.000, 0.000, 10:39:58.520
55, 60015.04, 36749.75, 27672.04, 18746.92, 42433.64, 60447.77, 49316.30, 51929.96, 0.000, 0.000, 0.000, 10:39:58.520
56, 60217.96, 37071.84, 27973.56, 19081.06, 42745.41, 60775.00, 49649.50, 52190.67, 0.000, 0.000, 0.000, 10:39:58.520
57, 60023.82, 36709.81, 27662.43, 18680.69, 42394.86, 60444.68, 49267.47, 51969.41, 0.000, 0.000, 0.000, 10:39:58.520
58, 59811.32, 36352.34, 27339.51, 18312.38, 42051.88, 60091.57, 48900.07, 51699.38, 0.000, 0.000, 0.000, 10:39:58.520
59, 59965.91, 36644.25, 27587.21, 18631.38, 42335.61, 60349.44, 49205.22, 51865.12, 0.000, 0.000, 0.000, 10:39:58.520
60, 60228.79, 37065.92, 27964.40, 19074.08, 42740.98, 60760.60, 49641.01, 52180.79, 0.000, 0.000, 0.000, 10:39:58.520
61, 60103.46, 36812.56, 27762.79, 18799.83, 42499.85, 60539.68, 49373.62, 52044.56, 0.000, 0.000, 0.000, 10:39:58.521
62, 59859.78, 36396.73, 27393.92, 18370.54, 42099.22, 60136.29, 48946.50, 51740.89, 0.158, 0.052, 0.976, 10:39:58.521
63, 59963.65, 36604.98, 27564.04, 18595.87, 42300.79, 60317.41, 49169.23, 51845.07, 0.000, 0.000, 0.000, 10:39:58.521
64, 60252.66, 37101.64, 28005.46, 19118.59, 42776.92, 60796.50, 49685.00, 52200.95, 0.000, 0.000, 0.000, 10:39:58.521
65, 60184.19, 36954.79, 27888.74, 18951.35, 42632.78, 60677.41, 49527.42, 52135.13, 0.000, 0.000, 0.000, 10:39:58.521
66, 59914.34, 36508.40, 27489.47, 18491.13, 42200.34, 60248.81, 49070.41, 51817.67, 0.000, 0.000, 0.000, 10:39:58.522
67, 59928.33, 36593.61, 27547.25, 18600.34, 42281.90, 60310.41, 49165.45, 51822.25, 0.000, 0.000, 0.000, 10:39:58.523
68, 60219.69, 37111.41, 28003.76, 19148.47, 42780.70, 60804.43, 49706.99, 52174.09, 0.000, 0.000, 0.000, 10:39:58.523
69, 60221.27, 37088.49, 27996.32, 19122.14, 42756.07, 60805.30, 49681.67, 52199.32, 0.000, 0.000, 0.000, 10:39:58.524
70, 59943.55, 36630.21, 27596.87, 18641.11, 42315.67, 60373.04, 49210.74, 51880.45, 0.000, 0.000, 0.000, 10:39:58.524
71, 59897.27, 36610.52, 27565.24, 18631.88, 42298.37, 60332.92, 49195.59, 51810.58, 0.000, 0.000, 0.000, 10:39:58.524
72, 60173.91, 37125.87, 28013.64, 19181.02, 42794.00, 60817.24, 49736.59, 52139.22, 0.162, 0.060, 0.972, 10:39:58.524
73, 60244.66, 37238.36, 28129.09, 19288.17, 42901.58, 60948.09, 49850.60, 52249.19, 0.000, 0.000, 0.000, 10:39:58.524
74, 59975.45, 36794.75, 27733.02, 18817.66, 42469.54, 60529.66, 49391.09, 51935.77, 0.000, 0.000, 0.000, 10:39:58.524
75, 59849.12, 36645.46, 27581.67, 18670.75, 42321.71, 60367.10, 49243.33, 51776.63, 0.000, 0.000, 0.000, 10:39:58.524
76, 60087.99, 37114.87, 27984.45, 19175.76, 42771.02, 60802.18, 49735.27, 52070.93, 0.000, 0.000, 0.000, 10:39:58.525
77, 60215.62, 37341.47, 28195.16, 19404.58, 42985.42, 61035.46, 49962.72, 52250.80, 0.000, 0.000, 0.000, 10:39:58.525
78, 59971.25, 36930.76, 27833.51, 18970.75, 42585.73, 60652.48, 49534.62, 51978.53, 0.000, 0.000, 0.000, 10:39:58.525
79, 59783.52, 36662.54, 27576.60, 18695.78, 42323.45, 60375.43, 49256.56, 51745.72, 0.000, 0.000, 0.000, 10:39:58.525
80, 59987.03, 37068.04, 27920.66, 19132.62, 42712.53, 60743.64, 49680.30, 51989.84, 0.000, 0.000, 0.000, 10:39:58.525
81, 60185.18, 37417.78, 28236.42, 19490.50, 43046.04, 61092.66, 50039.27, 52253.37, 0.000, 0.000, 0.000, 10:39:58.525
82, 59994.32, 37087.24, 27958.16, 19125.85, 42726.68, 60793.61, 49694.25, 52044.20, 0.162, 0.058, 0.972, 10:39:58.525
83, 59759.09, 36722.04, 27619.31, 18751.28, 42371.89, 60433.37, 49319.64, 51757.12, 0.000, 0.000, 0.000, 10:39:58.525
84, 59904.33, 37022.60, 27869.41, 19081.10, 42661.45, 60700.61, 49637.03, 51922.16, 0.000, 0.000, 0.000, 10:39:58.525
85, 60154.31, 37451.22, 28256.16, 19536.61, 43071.54, 61118.14, 50082.75, 52233.75, 0.000, 0.000, 0.000, 10:39:58.526
86, 60025.29, 37203.89, 28051.06, 19261.08, 42830.81, 60900.95, 49823.76, 52090.67, 0.000, 0.000, 0.000, 10:39:58.526
87, 59769.25, 36782.75, 27672.40, 18823.52, 42422.80, 60491.93, 49389.51, 51776.61, 0.000, 0.000, 0.000, 10:39:58.526
88, 59845.34, 36970.45, 27822.45, 19036.67, 42603.07, 60650.74, 49589.54, 51860.65, 0.000, 0.000, 0.000, 10:39:58.526
89, 60121.47, 37465.23, 28264.54, 19557.98, 43080.15, 61128.02, 50105.70, 52205.96, 0.000, 0.000, 0.000, 10:39:58.526
90, 60058.93, 37335.21, 28158.82, 19413.65, 42951.16, 61026.72, 49966.16, 52155.18, 0.000, 0.000, 0.000, 10:39:58.990
91, 59779.31, 36865.20, 27741.26, 18916.68, 42496.79, 60577.96, 49479.90, 51819.79, 0.160, 0.060, 0.978, 10:39:58.990
92, 59795.00, 36932.70, 27790.39, 19002.13, 42564.18, 60621.30, 49555.78, 51822.12, 0.000, 0.000, 0.000, 10:39:58.990
93, 60091.05, 37459.82, 28252.13, 19558.07, 43069.30, 61120.33, 50102.62, 52183.59, 0.000, 0.000, 0.000, 10:39:58.991
94, 60094.25, 37439.13, 28249.30, 19519.20, 43046.57, 61123.08, 50074.30, 52209.05, 0.000, 0.000, 0.000, 10:39:58.991
95, 59824.78, 36961.92, 27824.93, 19015.90, 42582.29, 60670.16, 49578.92, 51888.07, 0.000, 0.000, 0.000, 10:39:58.992
96, 59771.85, 36901.59, 27757.27, 18955.69, 42525.15, 60591.62, 49519.39, 51808.35, 0.000, 0.000, 0.000, 10:39:58.992
97, 60046.86, 37396.46, 28190.09, 19490.38, 43002.96, 61053.41, 50034.38, 52135.64, 0.000, 0.000, 0.000, 10:39:58.992
98, 60123.98, 37504.48, 28300.50, 19594.59, 43104.29, 61176.30, 50139.50, 52246.26, 0.000, 0.000, 0.000, 10:39:58.992
99, 59865.21, 37046.52, 27901.68, 19112.35, 42661.30, 60748.71, 49666.34, 51946.86, 0.000, 0.000, 0.000, 10:39:58.992
100, 59733.96, 36853.31, 27715.89, 18920.55, 42475.64, 60545.73, 49474.69, 51766.17, 0.000, 0.000, 0.000, 10:39:58.992
101, 59980.21, 37312.39, 28108.19, 19412.40, 42916.18, 60968.40, 49958.72, 52060.74, 0.158, 0.058, 0.978, 10:39:58.992
102, 60129.97, 37559.04, 28340.71, 19659.39, 43151.89, 61221.83, 50208.32, 52263.36, 0.000, 0.000, 0.000, 10:39:58.992
103, 59909.63, 37163.53, 28002.40, 19237.52, 42770.42, 60860.36, 49796.82, 52016.40, 0.000, 0.000, 0.000, 10:39:58.992
104, 59721.47, 36871.97, 27727.20, 18940.94, 42488.05, 60567.14, 49498.56, 51776.00, 0.000, 0.000, 0.000, 10:39:58.992
105, 59919.84, 37258.37, 28052.51, 19366.45, 42859.71, 60917.91, 49903.38, 52002.92, 0.000, 0.000, 0.000, 10:39:58.992
106, 60127.33, 37611.86, 28374.67, 19723.83, 43198.21, 61266.98, 50263.73, 52265.44, 0.000, 0.000, 0.000, 10:39:58.992
107, 59949.57, 37280.29, 28094.78, 19353.50, 42876.86, 60966.97, 49915.69, 52064.95, 0.000, 0.000, 0.000, 10:39:58.992
108, 59725.54, 36903.94, 27754.79, 18960.74, 42512.37, 60595.98, 49525.52, 51782.55, 0.000, 0.000, 0.000, 10:39:58.993
109, 59871.27, 37190.42, 27994.96, 19279.59, 42787.81, 60847.30, 49827.69, 51941.96, 0.000, 0.000, 0.000, 10:39:58.993
110, 60127.60, 37628.18, 28384.05, 19744.90, 43206.01, 61271.23, 50278.66, 52254.98, 0.000, 0.000, 0.000, 10:39:58.994
111, 60014.61, 37386.89, 28191.72, 19475.95, 42974.00, 61062.19, 50022.51, 52125.79, 0.158, 0.060, 0.974, 10:39:58.994
112, 59762.15, 36936.61, 27789.88, 18996.39, 42538.83, 60625.95, 49555.11, 51801.08, 0.000, 0.000, 0.000, 10:39:58.994
113, 59838.68, 37101.41, 27918.98, 19177.04, 42696.93, 60759.39, 49728.98, 51864.76, 0.000, 0.000, 0.000, 10:39:58.994
114, 60130.26, 37601.64, 28362.64, 19707.55, 43174.92, 61235.80, 50245.45, 52213.43, 0.000, 0.000, 0.000, 10:39:58.994
115, 60076.32, 37466.44, 28256.09, 19558.22, 43040.94, 61125.94, 50095.67, 52153.35, 0.000, 0.000, 0.000, 10:39:58.994
116, 59808.33, 36982.84, 27826.22, 19045.47, 42574.66, 60664.89, 49593.04, 51816.21, 0.000, 0.000, 0.000, 10:39:58.994
117, 59821.67, 37032.66, 27854.50, 19096.77, 42622.90, 60688.00, 49650.46, 51799.65, 0.000, 0.000, 0.000, 10:39:58.994
118, 60108.93, 37548.52, 28308.10, 19637.17, 43117.92, 61173.32, 50185.54, 52144.96, 0.000, 0.000, 0.000, 10:39:58.994
119, 60139.85, 37554.91, 28328.04, 19629.95, 43120.76, 61201.78, 50181.54, 52189.89, 0.000, 0.000, 0.000, 10:39:58.994
120, 59875.65, 37073.92, 27905.62, 19119.88, 42655.93, 60749.16, 49680.86, 51865.70, 0.000, 0.000, 0.000, 10:39:58.995
121, 59811.01, 36994.57, 27821.80, 19046.08, 42580.47, 60651.30, 49602.09, 51758.84, 0.162, 0.060, 0.974, 10:39:58.995
122, 60082.89, 37493.24, 28249.23, 19586.99, 43058.36, 61115.88, 50125.89, 52076.86, 0.000, 0.000, 0.000, 10:39:58.995
123, 60178.92, 37626.99, 28387.18, 19719.56, 43188.24, 61268.77, 50262.19, 52208.51, 0.000, 0.000, 0.000, 10:39:58.995
124, 59933.18, 37176.45, 27995.43, 19236.45, 42752.92, 60851.41, 49795.66, 51922.96, 0.000, 0.000, 0.000, 10:39:58.995
125, 59794.51, 36968.24, 27793.70, 19031.93, 42551.15, 60631.14, 49585.58, 51732.75, 0.000, 0.000, 0.000, 10:39:58.995
126, 60029.21, 37418.70, 28181.71, 19515.71, 42985.20, 61045.72, 50057.51, 52004.89, 0.000, 0.000, 0.000, 10:39:58.995
127, 60183.37, 37671.43, 28417.09, 19770.70, 43226.82, 61306.30, 50314.60, 52207.37, 0.000, 0.000, 0.000, 10:39:58.995
128, 59972.54, 37271.29, 28069.43, 19341.72, 42838.61, 60938.45, 49897.09, 51956.61, 0.000, 0.000, 0.000, 10:39:58.995
129, 59800.70, 36963.39, 27791.09, 19017.18, 42543.97, 60634.00, 49582.25, 51726.98, 0.000, 0.000, 0.000, 10:39:58.995
130, 59997.24, 37335.95, 28109.22, 19420.22, 42903.43, 60969.19, 49970.52, 51951.13, 0.000, 0.000, 0.000, 10:39:58.995
131, 60214.91, 37696.64, 28441.90, 19790.95, 43249.64, 61327.21, 50337.87, 52227.49, 0.156, 0.058, 0.976, 10:39:58.995
132, 60051.27, 37369.07, 28168.45, 19437.72, 42934.95, 61034.50, 49993.50, 52044.20, 0.000, 0.000, 0.000, 10:39:58.995
133, 59812.89, 36954.50, 27791.24, 19008.01, 42535.79, 60629.29, 49565.95, 51745.54, 0.000, 0.000, 0.000, 10:39:58.996
134, 59955.96, 37237.25, 28033.65, 19315.77, 42811.88, 60878.02, 49865.62, 51901.84, 0.000, 0.000, 0.000, 10:39:58.996
135, 60232.65, 37700.26, 28453.77, 19798.97, 43258.52, 61329.92, 50344.64, 52239.55, 0.000, 0.000, 0.000, 10:39:58.996
136, 60141.39, 37492.30, 28287.96, 19565.06, 43058.64, 61155.09, 50123.79, 52141.30, 0.000, 0.000, 0.000, 10:39:58.996
137, 59880.48, 37034.11, 27879.62, 19088.26, 42616.80, 60714.09, 49649.91, 51819.03, 0.000, 0.000, 0.000, 10:39:58.996
138, 59950.80, 37195.45, 28000.70, 19269.15, 42770.26, 60842.83, 49822.62, 51883.05, 0.000, 0.000, 0.000, 10:39:58.996
139, 60247.80, 37713.14, 28456.83, 19814.55, 43266.29, 61337.05, 50360.13, 52243.98, 0.000, 0.000, 0.000, 10:39:58.996
140, 60213.88, 37621.25, 28391.72, 19704.02, 43177.22, 61273.48, 50259.48, 52226.21, 0.158, 0.062, 0.976, 10:39:58.996
141, 59946.10, 37152.31, 27976.96, 19211.53, 42724.53, 60827.61, 49771.84, 51908.06, 0.000, 0.000, 0.000, 10:39:58.996
142, 59935.39, 37187.73, 27987.76, 19260.03, 42758.71, 60837.29, 49813.72, 51882.24, 0.000, 0.000, 0.000, 10:39:58.996
143, 60219.98, 37715.24, 28445.34, 19824.43, 43264.62, 61336.07, 50364.00, 52239.58, 0.000, 0.000, 0.000, 10:39:58.997
144, 60258.02, 37750.02, 28500.84, 19843.01, 43300.76, 61395.97, 50391.07, 52306.01, 0.000, 0.000, 0.000, 10:39:58.997
145, 59990.36, 37268.00, 28078.48, 19334.35, 42835.95, 60945.00, 49889.34, 51989.78, 0.000, 0.000, 0.000, 10:39:58.997
146, 59905.33, 37153.47, 27964.69, 19226.50, 42727.84, 60814.60, 49776.24, 51865.34, 0.000, 0.000, 0.000, 10:39:58.997
147, 60164.88, 37638.93, 28391.79, 19740.70, 43197.72, 61267.25, 50283.53, 52178.96, 0.000, 0.000, 0.000, 10:39:58.997
148, 60262.89, 37780.88, 28534.33, 19879.69, 43334.76, 61424.67, 50422.74, 52319.98, 0.000, 0.000, 0.000, 10:39:58.997
149, 60025.41, 37333.13, 28147.15, 19395.93, 42902.90, 61009.53, 49955.75, 52041.77, 0.000, 0.000, 0.000, 10:39:58.997
150, 59890.07, 37108.50, 27938.63, 19164.41, 42688.28, 60776.25, 49724.56, 51853.88, 0.158, 0.056, 0.974, 10:39:58.997
151, 60131.38, 37550.73, 28319.66, 19643.23, 43116.49, 61182.54, 50187.69, 52132.94, 0.000, 0.000, 0.000, 10:39:58.998
152, 60292.29, 37813.92, 28567.58, 19907.27, 43371.41, 61452.45, 50453.45, 52342.15, 0.000, 0.000, 0.000, 10:39:58.998
153, 60071.32, 37404.95, 28213.13, 19469.98, 42977.35, 61078.49, 50027.43, 52089.73, 0.000, 0.000, 0.000, 10:39:58.998
154, 59867.43, 37055.41, 27899.38, 19108.82, 42643.84, 60732.01, 49666.87, 51825.78, 0.000, 0.000, 0.000, 10:39:58.998
155, 60054.38, 37411.19, 28203.99, 19493.80, 42989.27, 61053.34, 50039.39, 52040.20, 0.000, 0.000, 0.000, 10:39:58.998
156, 60282.03, 37783.81, 28541.61, 19878.81, 43347.47, 61422.79, 50418.61, 52328.56, 0.000, 0.000, 0.000, 10:39:58.998
157, 60129.43, 37473.88, 28278.42, 19540.30, 43046.39, 61147.11, 50092.14, 52158.80, 0.000, 0.000, 0.000, 10:39:58.998
158, 59879.18, 37042.38, 27891.18, 19081.95, 42631.30, 60727.25, 49644.36, 51847.91, 0.000, 0.000, 0.000, 10:39:58.998
159, 60011.57, 37302.11, 28105.42, 19366.38, 42882.31, 60952.38, 49919.73, 51993.42, 0.000, 0.000, 0.000, 10:39:58.998
160, 60271.90, 37751.74, 28506.81, 19848.10, 43315.31, 61386.89, 50383.27, 52323.02, 0.158, 0.054, 0.976, 10:39:58.998
161, 60171.77, 37550.10, 28339.96, 19618.44, 43119.13, 61213.20, 50165.79, 52219.02, 0.000, 0.000, 0.000, 10:39:58.998
162, 59890.22, 37070.61, 27911.29, 19107.41, 42657.14, 60753.87, 49668.88, 51873.84, 0.000, 0.000, 0.000, 10:39:58.998
163, 59947.22, 37204.50, 28015.99, 19263.52, 42789.04, 60862.66, 49819.51, 51927.37, 0.000, 0.000, 0.000, 10:39:58.998
164, 60226.08, 37698.29, 28453.08, 19788.87, 43264.23, 61335.26, 50334.43, 52268.12, 0.000, 0.000, 0.000, 10:39:58.999
165, 60193.27, 37618.30, 28396.06, 19695.78, 43184.75, 61278.96, 50244.84, 52256.61, 0.000, 0.000, 0.000, 10:39:58.999
166, 59915.05, 37139.86, 27978.50, 19188.21, 42724.82, 60824.93, 49745.95, 51931.88, 0.000, 0.000, 0.000, 10:39:58.999
167, 59888.17, 37137.55, 27957.03, 19207.37, 42724.31, 60800.50, 49751.79, 51886.78, 0.000, 0.000, 0.000, 10:39:58.999
168, 60173.53, 37644.27, 28403.17, 19750.45, 43213.36, 61281.62, 50282.89, 52232.52, 0.000, 0.000, 0.000, 10:39:58.999
169, 60220.96, 37693.11, 28461.62, 19779.73, 43259.63, 61349.34, 50326.40, 52306.10, 0.000, 0.000, 0.000, 10:39:58.999
170, 59945.10, 37215.41, 28042.47, 19273.08, 42799.52, 60901.46, 49830.42, 51988.12, 0.158, 0.054, 0.974, 10:39:58.999
171, 59845.30, 37080.27, 27908.01, 19156.52, 42670.66, 60754.21, 49696.51, 51855.09, 0.000, 0.000, 0.000, 10:39:58.999
172, 60118.81, 37567.36, 28336.63, 19670.00, 43142.00, 61211.50, 50207.89, 52183.01, 0.000, 0.000, 0.000, 10:39:58.999
173, 60231.51, 37735.53, 28499.95, 19831.72, 43302.93, 61390.76, 50377.77, 52339.36, 0.000, 0.000, 0.000, 10:39:58.999
174, 59992.66, 37310.31, 28131.03, 19378.85, 42892.84, 60997.11, 49936.34, 52061.03, 0.000, 0.000, 0.000, 10:39:58.999
175, 59837.83, 37066.19, 27900.43, 19132.24, 42658.82, 60748.42, 49687.28, 51855.89, 0.000, 0.000, 0.000, 10:39:58.999
176, 60066.46, 37486.91, 28261.88, 19583.41, 43065.35, 61135.80, 50127.34, 52123.93, 0.000, 0.000, 0.000, 10:39:59.000
177, 60240.92, 37777.84, 28537.10, 19877.92, 43346.09, 61429.39, 50422.32, 52350.04, 0.000, 0.000, 0.000, 10:39:59.000
178, 60030.95, 37426.41, 28226.36, 19506.19, 43001.65, 61102.67, 50053.00, 52122.34, 0.000, 0.000, 0.000, 10:39:59.000
179, 59805.31, 37085.75, 27909.15, 19163.27, 42671.47, 60762.19, 49703.30, 51842.39, 0.156, 0.052, 0.972, 10:39:59.000
180, 59982.00, 37434.48, 28201.42, 19544.01, 43006.07, 61077.23, 50071.37, 52050.91, 0.000, 0.000, 0.000, 10:39:59.000
181, 60198.57, 37819.84, 28550.20, 19938.89, 43376.91, 61456.86, 50468.98, 52338.38, 0.000, 0.000, 0.000, 10:39:59.000
182, 60043.94, 37563.87, 28332.53, 19665.96, 43128.09, 61229.65, 50203.29, 52180.05, 0.000, 0.000, 0.000, 10:39:59.000
183, 59785.97, 37160.54, 27965.47, 19237.83, 42737.18, 60837.58, 49787.28, 51861.95, 0.000, 0.000, 0.000, 10:39:59.000
184, 59907.43, 37411.59, 28175.65, 19517.16, 42981.42, 61061.92, 50057.76, 51998.40, 0.000, 0.000, 0.000, 10:39:59.000
185, 60169.80, 37867.12, 28583.77, 19998.33, 43420.45, 61506.84, 50533.58, 52331.94, 0.000, 0.000, 0.000, 10:39:59.001
186, 60079.32, 37712.42, 28465.37, 19829.21, 43270.23, 61379.45, 50371.62, 52253.46, 0.000, 0.000, 0.000, 10:39:59.001
187, 59801.46, 37268.27, 28065.99, 19362.62, 42839.60, 60953.07, 49911.85, 51925.63, 0.000, 0.000, 0.000, 10:39:59.001
188, 59844.71, 37390.29, 28155.66, 19504.96, 42956.77, 61048.63, 50042.94, 51966.84, 0.000, 0.000, 0.000, 10:39:59.001
189, 60119.73, 37869.66, 28581.42, 20018.54, 43418.80, 61509.96, 50544.18, 52299.13, 0.162, 0.054, 0.978, 10:39:59.001
190, 60094.03, 37820.00, 28551.00, 19951.32, 43370.38, 61482.52, 50492.41, 52301.18, 0.000, 0.000, 0.000, 10:39:59.001
191, 59809.31, 37358.93, 28138.68, 19460.99, 42923.15, 61044.27, 50014.17, 51977.71, 0.000, 0.000, 0.000, 10:39:59.001
192, 59776.45, 37348.63, 28112.68, 19463.94, 42913.07, 61013.62, 50008.59, 51926.48, 0.000, 0.000, 0.000, 10:39:59.001
193, 60052.79, 37842.31, 28549.79, 19990.08, 43389.68, 61481.33, 50522.25, 52262.33, 0.000, 0.000, 0.000, 10:39:59.001
194, 60098.21, 37909.72, 28620.69, 20055.28, 43453.38, 61563.32, 50585.97, 52339.94, 0.000, 0.000, 0.000, 10:39:59.001
195, 59835.48, 37472.88, 28237.70, 19588.08, 43030.55, 61149.99, 50131.25, 52041.14, 0.000, 0.000, 0.000, 10:39:59.001
196, 59729.71, 37333.43, 28095.31, 19455.29, 42894.38, 60997.86, 49990.82, 51901.40, 0.000, 0.000, 0.000, 10:39:59.001
197, 59988.75, 37797.60, 28509.16, 19953.60, 43346.04, 61435.29, 50476.56, 52212.73, 0.000, 0.000, 0.000, 10:39:59.002
198, 60101.80, 37981.43, 28684.91, 20132.35, 43522.11, 61628.63, 50666.13, 52370.76, 0.000, 0.000, 0.000, 10:39:59.002
199, 59864.14, 37587.03, 28336.40, 19714.28, 43136.54, 61260.07, 50256.64, 52104.21, 0.160, 0.054, 0.978, 10:39:59.002
200, 59689.91, 37333.25, 28095.29, 19455.36, 42888.19, 61000.32, 49994.46, 51886.46, 0.000, 0.000, 0.000, 10:39:59.002
201, 59910.47, 37737.21, 28446.64, 19889.95, 43278.77, 61373.11, 50418.89, 52147.27, 0.000, 0.000, 0.000, 10:39:59.002
202, 60085.09, 38022.77, 28709.94, 20185.05, 43552.28, 61661.22, 50711.73, 52374.32, 0.000, 0.000, 0.000, 10:39:59.002
203, 59888.34, 37683.43, 28415.53, 19824.72, 43220.96, 61350.06, 50360.29, 52156.21, 0.000, 0.000, 0.000, 10:39:59.002
204, 59676.03, 37338.39, 28098.58, 19473.38, 42886.85, 61010.25, 50005.21, 51886.98, 0.000, 0.000, 0.000, 10:39:59.002
205, 59857.93, 37664.54, 28374.82, 19821.66, 43202.79, 61307.08, 50347.70, 52089.04, 0.000, 0.000, 0.000, 10:39:59.002
206, 60089.31, 38044.14, 28720.72, 20208.05, 43569.11, 61682.01, 50739.02, 52376.75, 0.000, 0.000, 0.000, 10:39:59.002
207, 59949.70, 37797.38, 28517.05, 19942.18, 43329.59, 61461.84, 50479.02, 52234.21, 0.000, 0.000, 0.000, 10:39:59.002
208, 59701.35, 37379.67, 28134.10, 19509.63, 42924.22, 61055.26, 50047.19, 51928.44, 0.000, 0.000, 0.000, 10:39:59.002
209, 59812.35, 37588.37, 28304.71, 19748.12, 43126.66, 61237.63, 50270.66, 52045.63, 0.160, 0.054, 0.978, 10:39:59.003
210, 60073.53, 38021.19, 28698.34, 20197.75, 43547.28, 61658.94, 50717.20, 52363.65, 0.000, 0.000, 0.000, 10:39:59.472
211, 59998.47, 37866.54, 28573.89, 20024.55, 43398.13, 61527.27, 50552.63, 52284.28, 0.000, 0.000, 0.000, 10:39:59.472
212, 59717.91, 37391.54, 28149.79, 19529.32, 42938.39, 61070.57, 50057.98, 51939.24, 0.000, 0.000, 0.000, 10:39:59.472
213, 59760.80, 37482.31, 28219.05, 19634.69, 43028.71, 61139.02, 50156.78, 51967.13, 0.000, 0.000, 0.000, 10:39:59.472
214, 60039.91, 37950.45, 28643.02, 20117.46, 43485.21, 61590.39, 50639.73, 52308.89, 0.000, 0.000, 0.000, 10:39:59.472
215, 60031.51, 37904.55, 28619.06, 20053.72, 43440.52, 61564.88, 50584.77, 52317.52, 0.000, 0.000, 0.000, 10:39:59.472
216, 59766.04, 37432.51, 28200.26, 19561.96, 42982.70, 61115.72, 50091.93, 51999.39, 0.000, 0.000, 0.000, 10:39:59.472
217, 59738.81, 37395.90, 28154.81, 19530.28, 42950.48, 61061.03, 50059.25, 51941.38, 0.000, 0.000, 0.000, 10:39:59.472
218, 60025.36, 37875.39, 28589.71, 20029.15, 43418.06, 61518.77, 50557.52, 52275.43, 0.158, 0.054, 0.976, 10:39:59.472
219, 60093.87, 37951.65, 28668.59, 20102.80, 43490.04, 61608.91, 50629.56, 52371.27, 0.000, 0.000, 0.000, 10:39:59.472
220, 59841.50, 37498.85, 28268.79, 19622.42, 43049.86, 61182.54, 50155.39, 52073.50, 0.000, 0.000, 0.000, 10:39:59.472
221, 59742.28, 37337.27, 28113.31, 19451.25, 42896.33, 61008.97, 49986.97, 51926.74, 0.000, 0.000, 0.000, 10:39:59.472
222, 60000.17, 37784.41, 28506.21, 19919.27, 43330.31, 61427.46, 50450.88, 52227.93, 0.000, 0.000, 0.000, 10:39:59.472
223, 60119.89, 37966.54, 28680.80, 20096.45, 43505.50, 61617.23, 50629.49, 52386.12, 0.000, 0.000, 0.000, 10:39:59.473
224, 59904.75, 37571.47, 28335.10, 19676.64, 43121.14, 61247.18, 50215.58, 52130.82, 0.000, 0.000, 0.000, 10:39:59.473
225, 59735.01, 37289.70, 28080.03, 19385.85, 42852.34, 60963.33, 49925.93, 51897.35, 0.000, 0.000, 0.000, 10:39:59.473
226, 59955.91, 37669.53, 28408.71, 19799.80, 43220.74, 61316.29, 50327.95, 52148.83, 0.000, 0.000, 0.000, 10:39:59.473
227, 60153.46, 37971.05, 28688.11, 20108.10, 43512.90, 61622.84, 50637.96, 52399.95, 0.000, 0.000, 0.000, 10:39:59.473
228, 59982.25, 37646.55, 28418.70, 19750.18, 43200.89, 61329.34, 50298.26, 52208.15, 0.158, 0.060, 0.978, 10:39:59.473
229, 59758.46, 37267.00, 28073.66, 19352.74, 42836.94, 60955.86, 49907.06, 51926.36, 0.000, 0.000, 0.000, 10:39:59.473
230, 59924.31, 37561.39, 28323.39, 19677.67, 43124.20, 61223.46, 50219.63, 52104.33, 0.000, 0.000, 0.000, 10:39:59.473
231, 60164.37, 37945.17, 28674.00, 20073.63, 43495.80, 61601.16, 50613.49, 52390.18, 0.000, 0.000, 0.000, 10:39:59.473
232, 60041.39, 37703.52, 28469.82, 19813.23, 43260.64, 61384.37, 50360.96, 52255.00, 0.000, 0.000, 0.000, 10:39:59.473
233, 59789.82, 37270.62, 28081.75, 19365.89, 42842.39, 60965.03, 49912.16, 51948.20, 0.000, 0.000, 0.000, 10:39:59.473
234, 59892.73, 37465.23, 28241.90, 19576.86, 43031.49, 61131.95, 50117.44, 52053.55, 0.000, 0.000, 0.000, 10:39:59.473
235, 60155.67, 37903.04, 28636.27, 20030.76, 43456.35, 61555.52, 50567.58, 52375.07, 0.000, 0.000, 0.000, 10:39:59.473
236, 60089.20, 37768.16, 28524.83, 19880.45, 43322.86, 61441.46, 50420.30, 52318.70, 0.000, 0.000, 0.000, 10:39:59.473
237, 59814.45, 37292.45, 28094.13, 19379.65, 42860.39, 60983.74, 49925.39, 51974.04, 0.000, 0.000, 0.000, 10:39:59.473
238, 59853.48, 37373.23, 28155.89, 19474.13, 42941.37, 61040.00, 50013.23, 51987.38, 0.158, 0.060, 0.980, 10:39:59.474
239, 60136.98, 37845.88, 28586.45, 19973.65, 43402.21, 61495.08, 50504.19, 52323.73, 0.000, 0.000, 0.000, 10:39:59.474
240, 60138.39, 37827.18, 28580.71, 19933.02, 43381.05, 61493.31, 50480.05, 52347.80, 0.000, 0.000, 0.000, 10:39:59.474
241, 59876.57, 37364.80, 28171.94, 19439.40, 42931.42, 61054.26, 49997.36, 52030.30, 0.000, 0.000, 0.000, 10:39:59.474
242, 59830.61, 37310.92, 28111.30, 19399.57, 42881.29, 60984.45, 49945.26, 51960.56, 0.000, 0.000, 0.000, 10:39:59.474
243, 60096.13, 37766.67, 28513.87, 19888.16, 43323.96, 61417.29, 50420.57, 52277.55, 0.000, 0.000, 0.000, 10:39:59.474
244, 60164.70, 37859.11, 28609.27, 19970.30, 43412.65, 61523.15, 50512.57, 52378.92, 0.000, 0.000, 0.000, 10:39:59.474
245, 59915.61, 37419.28, 28219.34, 19506.08, 42984.46, 61109.40, 50054.74, 52090.71, 0.000, 0.000, 0.000, 10:39:59.474
246, 59799.65, 37242.70, 28057.88, 19330.55, 42819.88, 60924.95, 49874.32, 51936.98, 0.000, 0.000, 0.000, 10:39:59.474
247, 60045.90, 37669.48, 28432.16, 19782.75, 43235.52, 61325.61, 50320.23, 52220.36, 0.000, 0.000, 0.000, 10:39:59.474
248, 60191.03, 37884.26, 28636.38, 20004.50, 43443.32, 61548.30, 50538.75, 52405.77, 0.158, 0.060, 0.976, 10:39:59.474
249, 59981.24, 37506.29, 28304.64, 19595.21, 43075.30, 61197.00, 50142.88, 52159.58, 0.000, 0.000, 0.000, 10:39:59.474
250, 59795.47, 37207.45, 28028.82, 19289.98, 42788.61, 60895.94, 49835.92, 51920.38, 0.000, 0.000, 0.000, 10:39:59.474
251, 60007.55, 37576.10, 28348.29, 19689.36, 43146.71, 61237.18, 50223.23, 52162.58, 0.000, 0.000, 0.000, 10:39:59.474
252, 60201.09, 37886.63, 28635.65, 19999.29, 43447.07, 61548.63, 50541.07, 52409.68, 0.000, 0.000, 0.000, 10:39:59.474
253, 60035.96, 37586.98, 28379.23, 19676.60, 43154.06, 61274.02, 50226.29, 52229.45, 0.000, 0.000, 0.000, 10:39:59.475
254, 59810.54, 37207.23, 28033.20, 19278.51, 42784.75, 60899.98, 49831.85, 51941.00, 0.000, 0.000, 0.000, 10:39:59.475
255, 59961.30, 37483.85, 28267.98, 19583.19, 43053.06, 61149.57, 50125.24, 52102.20, 0.000, 0.000, 0.000, 10:39:59.475
0, 60198.32, 37870.74, 28617.52, 19988.09, 43427.94, 61529.84, 50524.13, 52391.21, 0.000, 0.000, 0.000, 10:39:59.475
1, 60086.43, 37656.23, 28447.29, 19755.03, 43221.99, 61342.71, 50298.93, 52274.05, 0.000, 0.000, 0.000, 10:39:59.475
2, 59822.77, 37208.97, 28045.27, 19289.29, 42791.30, 60910.04, 49838.33, 51951.46, 0.156, 0.056, 0.978, 10:39:59.475
3, 59905.89, 37377.77, 28180.12, 19477.15, 42956.90, 61052.07, 50018.91, 52031.20, 0.000, 0.000, 0.000, 10:39:59.475
4, 60173.53, 37825.86, 28583.16, 19945.98, 43389.83, 61483.37, 50479.31, 52355.99, 0.000, 0.000, 0.000, 10:39:59.475
5, 60123.96, 37724.07, 28504.04, 19831.65, 43286.95, 61399.12, 50366.21, 52321.92, 0.000, 0.000, 0.000, 10:39:59.475
6, 59845.90, 37256.78, 28084.32, 19327.80, 42832.13, 60949.90, 49875.26, 51982.96, 0.000, 0.000, 0.000, 10:39:59.475
7, 59876.66, 37325.49, 28129.16, 19400.89, 42899.01, 60997.02, 49951.36, 51998.61, 0.000, 0.000, 0.000, 10:39:59.475
8, 60153.08, 37787.84, 28540.36, 19890.12, 43347.03, 61442.33, 50433.56, 52327.73, 0.000, 0.000, 0.000, 10:39:59.475
9, 60161.98, 37783.07, 28548.03, 19880.02, 43341.17, 61455.88, 50427.21, 52358.56, 0.000, 0.000, 0.000, 10:39:59.476
10, 59897.78, 37317.64, 28131.86, 19387.43, 42888.95, 61014.58, 49943.99, 52039.87, 0.000, 0.000, 0.000, 10:39:59.476
11, 59848.02, 37249.27, 28067.17, 19330.32, 42829.02, 60932.21, 49878.43, 51962.62, 0.156, 0.056, 0.982, 10:39:59.476
12, 60108.82, 37697.63, 28466.98, 19808.74, 43265.58, 61359.43, 50346.61, 52276.01, 0.000, 0.000, 0.000, 10:39:59.476
13, 60190.21, 37814.73, 28584.48, 19926.06, 43377.63, 61485.58, 50462.64, 52390.01, 0.000, 0.000, 0.000, 10:39:59.476
14, 59947.96, 37388.32, 28210.54, 19464.93, 42962.93, 61083.05, 50016.12, 52104.38, 0.000, 0.000, 0.000, 10:39:59.476
15, 59825.40, 37197.66, 28025.78, 19266.51, 42778.85, 60881.43, 49820.14, 51936.64, 0.000, 0.000, 0.000, 10:39:59.476
16, 60069.08, 37620.36, 28394.40, 19717.63, 43188.57, 61276.14, 50260.46, 52209.61, 0.000, 0.000, 0.000, 10:39:59.476
17, 60214.23, 37851.11, 28610.34, 19957.63, 43412.29, 61510.86, 50494.91, 52392.62, 0.000, 0.000, 0.000, 10:39:59.476
18, 60002.99, 37478.04, 28285.71, 19560.66, 43049.10, 61165.41, 50104.09, 52153.95, 0.000, 0.000, 0.000, 10:39:59.476
19, 59807.30, 37160.06, 27997.41, 19223.37, 42744.25, 60849.11, 49780.30, 51907.25, 0.000, 0.000, 0.000, 10:39:59.477
20, 60002.90, 37508.57, 28299.01, 19596.58, 43082.11, 61169.28, 50146.09, 52127.15, 0.000, 0.000, 0.000, 10:39:59.477
21, 60197.92, 37827.11, 28588.64, 19931.07, 43389.38, 61484.46, 50471.06, 52375.93, 0.158, 0.052, 0.982, 10:39:59.477
22, 60040.20, 37538.55, 28341.61, 19620.63, 43108.22, 61220.73, 50168.58, 52208.62, 0.000, 0.000, 0.000, 10:39:59.477
23, 59804.13, 37142.88, 27991.27, 19205.15, 42729.36, 60835.55, 49760.39, 51913.02, 0.000, 0.000, 0.000, 10:39:59.477
24, 59945.34, 37399.34, 28206.96, 19491.41, 42979.03, 61067.42, 50033.73, 52060.14, 0.000, 0.000, 0.000, 10:39:59.478
25, 60183.95, 37789.96, 28562.42, 19905.79, 43357.00, 61449.55, 50436.42, 52347.18, 0.000, 0.000, 0.000, 10:39:59.478
26, 60085.53, 37595.86, 28403.43, 19691.82, 43166.83, 61279.41, 50231.90, 52249.64, 0.000, 0.000, 0.000, 10:39:59.478
27, 59823.86, 37149.07, 28000.72, 19217.61, 42734.81, 60845.67, 49764.37, 51923.95, 0.000, 0.000, 0.000, 10:39:59.478
28, 59903.48, 37304.14, 28124.86, 19387.52, 42886.47, 60975.47, 49929.19, 51999.05, 0.000, 0.000, 0.000, 10:39:59.478
29, 60164.32, 37737.75, 28515.33, 19839.32, 43306.73, 61393.60, 50379.89, 52310.03, 0.000, 0.000, 0.000, 10:39:59.478
30, 60126.70, 37650.75, 28442.71, 19740.48, 43217.83, 61324.24, 50286.59, 52281.02, 0.000, 0.000, 0.000, 10:39:59.478
31, 59843.82, 37173.74, 28014.40, 19231.96, 42754.55, 60866.37, 49786.81, 51940.02, 0.158, 0.054, 0.980, 10:39:59.478
32, 59856.11, 37216.73, 28046.25, 19288.04, 42800.93, 60889.59, 49834.73, 51933.00, 0.000, 0.000, 0.000, 10:39:59.478
33, 60124.27, 37670.80, 28446.01, 19766.61, 43241.15, 61323.48, 50304.81, 52246.31, 0.000, 0.000, 0.000, 10:39:59.478
34, 60160.01, 37702.68, 28486.60, 19792.94, 43270.61, 61371.38, 50335.70, 52307.24, 0.000, 0.000, 0.000, 10:39:59.479
35, 59888.91, 37232.89, 28069.97, 19297.27, 42813.78, 60925.40, 49846.11, 51982.82, 0.000, 0.000, 0.000, 10:39:59.479
36, 59822.12, 37141.02, 27975.80, 19214.97, 42727.23, 60818.49, 49755.07, 51875.02, 0.000, 0.000, 0.000, 10:39:59.479
37, 60088.30, 37588.84, 28374.71, 19691.04, 43163.34, 61243.69, 50221.02, 52182.11, 0.000, 0.000, 0.000, 10:39:59.479
38, 60186.12, 37732.27, 28519.33, 19825.46, 43303.46, 61399.23, 50365.05, 52326.71, 0.000, 0.000, 0.000, 10:39:59.479
39, 59942.48, 37307.70, 28148.24, 19368.63, 42890.70, 61001.06, 49919.94, 52045.16, 0.000, 0.000, 0.000, 10:39:59.479
40, 59805.71, 37092.79, 27946.29, 19149.37, 42684.63, 60780.40, 49703.17, 51865.03, 0.000, 0.000, 0.000, 10:39:59.479
41, 60040.61, 37491.83, 28297.44, 19575.01, 43072.93, 61155.80, 50122.96, 52130.39, 0.148, 0.058, 0.978, 10:39:59.479
42, 60200.67, 37739.89, 28525.47, 19834.24, 43310.32, 61406.81, 50377.05, 52331.64, 0.000, 0.000, 0.000, 10:39:59.479
43, 59995.63, 37374.53, 28200.81, 19444.32, 42952.32, 61069.39, 49997.61, 52096.10, 0.000, 0.000, 0.000, 10:39:59.480
44, 59802.22, 37060.33, 27921.46, 19122.99, 42653.79, 60758.95, 49675.83, 51853.25, 0.000, 0.000, 0.000, 10:39:59.480
45, 60004.64, 37412.30, 28226.52, 19503.44, 42996.44, 61083.38, 50043.39, 52084.28, 0.000, 0.000, 0.000, 10:39:59.480
46, 60208.91, 37747.38, 28532.85, 19853.47, 43321.25, 61414.70, 50386.69, 52340.32, 0.000, 0.000, 0.000, 10:39:59.480
47, 60048.05, 37462.06, 28291.23, 19546.33, 43043.82, 61156.63, 50089.03, 52168.88, 0.000, 0.000, 0.000, 10:39:59.480
48, 59813.02, 37063.75, 27933.67, 19125.63, 42660.40, 60768.00, 49676.28, 51867.22, 0.000, 0.000, 0.000, 10:39:59.480
49, 59950.71, 37313.06, 28146.05, 19397.80, 42904.13, 60990.93, 49940.72, 52009.18, 0.000, 0.000, 0.000, 10:39:59.480
50, 60195.28, 37720.20, 28514.70, 19818.53, 43298.68, 61386.49, 50361.09, 52310.14, 0.150, 0.060, 0.980, 10:39:59.480
51, 60107.57, 37551.15, 28372.86, 19628.36, 43132.09, 61239.00, 50182.59, 52229.30, 0.000, 0.000, 0.000, 10:39:59.480
52, 59830.32, 37086.19, 27948.69, 19146.82, 42679.98, 60788.90, 49702.14, 51895.16, 0.000, 0.000, 0.000, 10:39:59.481
53, 59908.69, 37235.28, 28077.37, 19325.38, 42827.48, 60916.86, 49866.25, 51978.53, 0.000, 0.000, 0.000, 10:39:59.481
54, 60180.91, 37688.84, 28479.27, 19799.11, 43264.82, 61352.99, 50333.47, 52300.87, 0.000, 0.000, 0.000, 10:39:59.481
55, 60161.24, 37633.34, 28440.29, 19721.35, 43207.78, 61316.27, 50268.82, 52293.45, 0.000, 0.000, 0.000, 10:39:59.481
56, 59879.27, 37160.63, 28015.16, 19196.86, 42747.46, 60861.09, 49769.96, 51950.73, 0.000, 0.000, 0.000, 10:39:59.481
57, 59875.92, 37181.86, 28020.12, 19223.37, 42771.16, 60862.68, 49795.64, 51924.42, 0.000, 0.000, 0.000, 10:39:59.481
58, 60148.43, 37637.39, 28427.04, 19709.46, 43214.08, 61298.18, 50270.03, 52243.38, 0.000, 0.000, 0.000, 10:39:59.481
59, 60180.59, 37679.21, 28476.75, 19747.68, 43251.59, 61353.10, 50308.52, 52304.82, 0.000, 0.000, 0.000, 10:39:59.481
60, 59901.06, 37208.61, 28060.69, 19236.67, 42794.69, 60907.63, 49814.35, 51977.26, 0.156, 0.056, 0.974, 10:39:59.481
61, 59825.65, 37112.10, 27962.57, 19121.60, 42703.30, 60793.26, 49711.08, 51861.28, 0.000, 0.000, 0.000, 10:39:59.482
62, 60077.64, 37550.04, 28350.64, 19582.05, 43128.34, 61205.20, 50162.63, 52151.63, 0.000, 0.000, 0.000, 10:39:59.482
63, 60188.24, 37716.55, 28507.71, 19748.08, 43286.19, 61378.27, 50331.63, 52301.96, 0.000, 0.000, 0.000, 10:39:59.482
64, 59935.95, 37284.52, 28128.75, 19286.49, 42865.17, 60972.74, 49877.98, 52011.03, 0.000, 0.000, 0.000, 10:39:59.482
65, 59794.16, 37065.36, 27927.88, 19039.04, 42656.85, 60745.80, 49649.88, 51821.04, 0.000, 0.000, 0.000, 10:39:59.482
66, 60023.11, 37461.39, 28271.31, 19449.41, 43041.48, 61115.28, 50059.70, 52077.51, 0.000, 0.000, 0.000, 10:39:59.482
67, 60182.05, 37719.37, 28509.04, 19718.89, 43289.88, 61376.79, 50327.16, 52286.09, 0.000, 0.000, 0.000, 10:39:59.482
68, 59976.01, 37367.60, 28202.45, 19327.96, 42946.57, 61051.02, 49955.23, 52050.46, 0.000, 0.000, 0.000, 10:39:59.482
69, 59772.83, 37040.53, 27900.29, 18978.55, 42632.62, 60723.52, 49616.02, 51797.84, 0.000, 0.000, 0.000, 10:39:59.483
70, 59948.49, 37357.61, 28173.37, 19326.05, 42941.50, 61014.63, 49948.68, 51999.45, 0.160, 0.060, 0.972, 10:39:59.483
71, 60159.29, 37706.30, 28490.40, 19689.05, 43278.00, 61358.18, 50305.28, 52262.96, 0.000, 0.000, 0.000, 10:39:59.483
72, 60012.93, 37448.09, 28269.50, 19396.66, 43024.18, 61121.20, 50030.00, 52102.61, 0.000, 0.000, 0.000, 10:39:59.483
73, 59754.17, 37028.64, 27882.82, 18945.43, 42616.06, 60707.25, 49590.67, 51774.02, 0.000, 0.000, 0.000, 10:39:59.483
74, 59879.50, 37255.98, 28067.78, 19191.16, 42836.09, 60908.90, 49829.57, 51904.68, 0.000, 0.000, 0.000, 10:39:59.951
75, 60141.68, 37684.08, 28462.51, 19628.79, 43252.17, 61324.87, 50266.39, 52220.91, 0.000, 0.000, 0.000, 10:39:59.951
76, 60056.68, 37524.46, 28332.38, 19451.29, 43095.21, 61187.94, 50096.45, 52145.12, 0.000, 0.000, 0.000, 10:39:59.951
77, 59773.19, 37052.33, 27909.71, 18951.95, 42638.50, 60733.89, 49605.25, 51804.91, 0.000, 0.000, 0.000, 10:39:59.951
78, 59830.32, 37171.93, 28004.10, 19089.95, 42755.85, 60832.57, 49736.50, 51854.17, 0.000, 0.000, 0.000, 10:39:59.951
79, 60103.91, 37625.11, 28413.20, 19563.34, 43196.62, 61271.14, 50206.40, 52179.23, 0.000, 0.000, 0.000, 10:39:59.951
80, 60091.55, 37577.89, 28383.88, 19512.87, 43149.44, 61244.47, 50156.60, 52185.75, 0.156, 0.054, 0.968, 10:39:59.951
81, 59807.43, 37095.89, 27957.20, 18993.93, 42682.11, 60786.59, 49657.08, 51848.87, 0.000, 0.000, 0.000, 10:39:59.951
82, 59810.38, 37107.18, 27955.84, 19004.39, 42695.09, 60781.14, 49676.66, 51828.04, 0.000, 0.000, 0.000, 10:39:59.951
83, 60069.80, 37546.21, 28347.60, 19476.06, 43122.64, 61200.59, 50137.55, 52136.14, 0.000, 0.000, 0.000, 10:39:59.951
84, 60118.30, 37611.01, 28419.19, 19546.29, 43185.60, 61280.41, 50204.05, 52219.13, 0.000, 0.000, 0.000, 10:39:59.951
85, 59841.50, 37148.62, 28008.19, 19047.24, 42738.50, 60842.92, 49718.41, 51895.72, 0.000, 0.000, 0.000, 10:39:59.951
86, 59755.24, 37024.12, 27885.57, 18925.74, 42620.51, 60705.86, 49593.63, 51771.89, 0.000, 0.000, 0.000, 10:39:59.951
87, 60016.46, 37461.54, 28278.73, 19390.96, 43048.05, 61119.88, 50045.35, 52071.72, 0.000, 0.000, 0.000, 10:39:59.951
88, 60134.08, 37641.30, 28447.42, 19573.69, 43220.65, 61304.11, 50227.41, 52228.96, 0.000, 0.000, 0.000, 10:39:59.951
89, 59894.05, 37224.73, 28082.75, 19118.03, 42814.68, 60911.52, 49789.87, 51953.01, 0.000, 0.000, 0.000, 10:39:59.952
90, 59746.39, 36989.66, 27862.48, 18872.20, 42588.88, 60670.50, 49548.94, 51756.54, 0.156, 0.058, 0.972, 10:39:59.952
91, 59971.76, 37369.72, 28195.58, 19282.27, 42958.69, 61025.54, 49946.22, 52009.91, 0.000, 0.000, 0.000, 10:39:59.952
92, 60148.72, 37657.57, 28462.06, 19567.68, 43235.45, 61312.64, 50238.02, 52240.83, 0.000, 0.000, 0.000, 10:39:59.952
93, 59945.77, 37316.66, 28165.28, 19191.90, 42901.63, 60995.29, 49878.21, 52024.93, 0.000, 0.000, 0.000, 10:39:59.952
94, 59733.45, 36971.15, 27844.95, 18835.79, 42565.18, 60650.85, 49523.51, 51752.64, 0.000, 0.000, 0.000, 10:39:59.952
95, 59915.41, 37281.50, 28109.06, 19170.78, 42866.53, 60935.68, 49847.34, 51945.18, 0.000, 0.000, 0.000, 10:39:59.952
96, 60133.32, 37638.73, 28428.29, 19540.41, 43211.93, 61284.84, 50211.80, 52211.73, 0.000, 0.000, 0.000, 10:39:59.953
97, 59994.23, 37393.55, 28229.31, 19267.87, 42975.16, 61064.50, 49951.97, 52072.61, 0.000, 0.000, 0.000, 10:39:59.953
98, 59723.43, 36957.00, 27841.35, 18807.07, 42556.65, 60641.33, 49500.39, 51749.85, 0.000, 0.000, 0.000, 10:39:59.953
99, 59840.73, 37162.70, 28013.06, 19039.62, 42758.75, 60825.00, 49722.01, 51863.93, 0.158, 0.060, 0.968, 10:39:59.954
100, 60108.67, 37596.26, 28404.64, 19496.06, 43179.88, 61247.22, 50168.85, 52178.89, 0.000, 0.000, 0.000, 10:39:59.954
101, 60051.02, 37474.24, 28310.67, 19356.05, 43060.32, 61147.35, 50037.02, 52129.54, 0.000, 0.000, 0.000, 10:39:59.954
102, 59768.92, 37002.02, 27887.38, 18855.55, 42603.38, 60693.30, 49543.85, 51786.82, 0.000, 0.000, 0.000, 10:39:59.954
103, 59813.47, 37093.32, 27955.24, 18957.36, 42695.45, 60766.39, 49647.36, 51818.00, 0.000, 0.000, 0.000, 10:39:59.954
104, 60080.53, 37533.50, 28348.40, 19414.50, 43123.69, 61192.17, 50106.46, 52130.48, 0.000, 0.000, 0.000, 10:39:59.955
105, 60088.39, 37519.73, 28348.25, 19395.23, 43108.54, 61197.60, 50090.66, 52163.58, 0.000, 0.000, 0.000, 10:39:59.955
106, 59799.90, 37034.45, 27912.48, 18881.81, 42635.17, 60734.07, 49584.84, 51822.07, 0.000, 0.000, 0.000, 10:39:59.955
107, 59777.08, 37014.22, 27890.28, 18861.45, 42618.07, 60695.78, 49567.03, 51770.39, 0.000, 0.000, 0.000, 10:39:59.955
108, 60045.03, 37460.27, 28290.80, 19336.67, 43053.86, 61121.07, 50028.81, 52083.74, 0.000, 0.000, 0.000, 10:39:59.957
109, 60107.93, 37556.52, 28389.38, 19431.24, 43146.27, 61226.52, 50121.17, 52186.05, 0.158, 0.058, 0.974, 10:39:59.957
110, 59841.45, 37105.93, 27991.00, 18945.40, 42708.55, 60799.18, 49647.34, 51878.02, 0.000, 0.000, 0.000, 10:39:59.957
111, 59745.45, 36962.39, 27848.17, 18800.52, 42569.50, 60642.05, 49501.13, 51744.87, 0.000, 0.000, 0.000, 10:39:59.958
112, 59987.14, 37376.86, 28213.67, 19229.63, 42971.54, 61028.06, 49924.56, 52019.10, 0.000, 0.000, 0.000, 10:39:59.958
113, 60130.19, 37598.27, 28422.05, 19458.13, 43183.03, 61251.33, 50146.20, 52204.64, 0.000, 0.000, 0.000, 10:39:59.958
114, 59887.05, 37187.11, 28058.35, 19016.95, 42780.54, 60865.47, 49712.34, 51918.94, 0.000, 0.000, 0.000, 10:39:59.958
115, 59723.57, 36931.92, 27819.27, 18740.78, 42535.12, 60607.89, 49451.18, 51706.00, 0.000, 0.000, 0.000, 10:39:59.958
116, 59951.94, 37303.36, 28144.55, 19125.85, 42898.50, 60958.77, 49840.10, 51955.46, 0.000, 0.000, 0.000, 10:39:59.958
117, 60141.68, 37601.06, 28414.05, 19438.78, 43187.44, 61256.23, 50150.45, 52193.07, 0.000, 0.000, 0.000, 10:39:59.958
118, 59952.50, 37269.54, 28126.47, 19088.37, 42864.25, 60950.41, 49805.38, 51981.80, 0.000, 0.000, 0.000, 10:39:59.958
119, 59733.83, 36911.45, 27801.84, 18715.45, 42520.57, 60598.17, 49438.46, 51708.32, 0.158, 0.058, 0.976, 10:39:59.958
120, 59900.57, 37194.89, 28046.41, 19028.04, 42797.82, 60858.21, 49735.85, 51885.89, 0.000, 0.000, 0.000, 10:39:59.958
121, 60137.75, 37576.66, 28397.02, 19426.32, 43169.91, 61232.11, 50129.29, 52178.87, 0.000, 0.000, 0.000, 10:39:59.958
122, 60008.08, 37342.66, 28204.17, 19164.47, 42944.67, 61023.90, 49885.65, 52046.91, 0.000, 0.000, 0.000, 10:39:59.958
123, 59740.40, 36903.60, 27809.84, 18707.92, 42520.95, 60595.69, 49431.62, 51719.05, 0.000, 0.000, 0.000, 10:39:59.959
124, 59834.90, 37080.34, 27957.09, 18904.41, 42692.59, 60750.54, 49619.33, 51811.59, 0.000, 0.000, 0.000, 10:39:59.959
125, 60098.56, 37511.34, 28345.72, 19359.98, 43109.03, 61167.29, 50064.93, 52128.69, 0.000, 0.000, 0.000, 10:39:59.959
126, 60041.21, 37395.03, 28252.40, 19241.37, 42990.85, 61070.53, 49941.24, 52080.88, 0.000, 0.000, 0.000, 10:39:59.959
127, 59757.52, 36925.28, 27829.66, 18748.62, 42533.27, 60616.72, 49451.73, 51737.74, 0.000, 0.000, 0.000, 10:39:59.959
128, 59795.47, 37004.43, 27884.05, 18834.00, 42609.44, 60674.90, 49539.64, 51760.67, 0.000, 0.000, 0.000, 10:39:59.959
129, 60070.82, 37452.67, 28283.11, 19301.24, 43043.85, 61105.71, 50006.42, 52086.09, 0.160, 0.058, 0.976, 10:39:59.959
130, 60082.25, 37456.11, 28297.67, 19291.52, 43046.20, 61126.14, 50007.98, 52131.31, 0.000, 0.000, 0.000, 10:39:59.959
131, 59803.30, 36985.68, 27881.48, 18795.69, 42590.60, 60678.19, 49518.52, 51799.25, 0.000, 0.000, 0.000, 10:39:59.959
132, 59780.25, 36956.21, 27836.91, 18787.76, 42562.17, 60631.54, 49493.22, 51745.98, 0.000, 0.000, 0.000, 10:39:59.960
133, 60052.05, 37399.81, 28232.55, 19257.19, 42996.17, 61055.49, 49955.21, 52059.94, 0.000, 0.000, 0.000, 10:39:59.960
134, 60133.25, 37517.71, 28351.38, 19361.42, 43110.37, 61186.73, 50075.21, 52178.94, 0.000, 0.000, 0.000, 10:39:59.960
135, 59865.05, 37064.80, 27952.44, 18877.81, 42672.18, 60762.25, 49604.87, 51866.68, 0.000, 0.000, 0.000, 10:39:59.960
136, 59746.95, 36886.10, 27782.01, 18724.12, 42501.46, 60576.00, 49432.47, 51711.07, 0.000, 0.000, 0.000, 10:39:59.960
137, 59990.00, 37292.90, 28142.63, 19158.64, 42897.71, 60959.44, 49852.73, 51984.81, 0.000, 0.000, 0.000, 10:39:59.960
138, 60151.70, 37538.99, 28376.79, 19404.13, 43136.27, 61210.54, 50102.04, 52189.33, 0.158, 0.056, 0.976, 10:39:59.960
139, 59919.50, 37139.50, 28027.95, 18986.53, 42748.58, 60839.57, 49690.03, 51930.01, 0.000, 0.000, 0.000, 10:39:59.960
140, 59736.84, 36849.60, 27757.27, 18696.36, 42469.36, 60549.42, 49398.83, 51700.10, 0.000, 0.000, 0.000, 10:39:59.960
141, 59942.77, 37189.66, 28061.56, 19065.79, 42802.43, 60867.46, 49754.51, 51926.05, 0.000, 0.000, 0.000, 10:39:59.961
142, 60144.88, 37512.98, 28356.65, 19412.38, 43114.82, 61188.82, 50089.68, 52182.65, 0.000, 0.000, 0.000, 10:39:59.961
143, 59964.68, 37199.20, 28086.29, 19079.96, 42808.84, 60903.65, 49763.45, 51988.19, 0.000, 0.000, 0.000, 10:39:59.961
144, 59737.07, 36826.58, 27743.03, 18707.67, 42448.04, 60535.65, 49384.23, 51706.27, 0.000, 0.000, 0.000, 10:39:59.961
145, 59892.04, 37092.92, 27967.46, 18998.54, 42707.68, 60776.49, 49663.81, 51874.82, 0.000, 0.000, 0.000, 10:39:59.961
146, 60143.54, 37493.91, 28331.68, 19421.77, 43098.01, 61167.78, 50080.42, 52182.02, 0.000, 0.000, 0.000, 10:39:59.961
147, 60044.85, 37297.21, 28168.32, 19218.57, 42905.51, 60997.75, 49877.98, 52085.71, 0.000, 0.000, 0.000, 10:39:59.961
148, 59780.88, 36858.70, 27770.92, 18772.20, 42480.94, 60572.29, 49427.66, 51766.57, 0.156, 0.056, 0.978, 10:39:59.961
149, 59872.03, 37022.73, 27907.81, 18966.26, 42642.23, 60715.63, 49604.11, 51856.96, 0.000, 0.000, 0.000, 10:39:59.961
150, 60140.94, 37453.25, 28290.33, 19431.78, 43058.04, 61132.27, 50054.41, 52173.46, 0.000, 0.000, 0.000, 10:39:59.962
151, 60099.75, 37362.19, 28227.14, 19336.90, 42968.37, 61063.11, 49959.63, 52146.75, 0.000, 0.000, 0.000, 10:39:59.962
152, 59824.57, 36902.19, 27816.30, 18854.05, 42522.20, 60620.36, 49481.26, 51817.91, 0.000, 0.000, 0.000, 10:39:59.962
153, 59852.85, 36967.66, 27858.86, 18938.61, 42586.26, 60665.52, 49554.17, 51831.32, 0.000, 0.000, 0.000, 10:39:59.962
154, 60133.43, 37422.54, 28262.89, 19421.43, 43025.86, 61099.34, 50025.17, 52150.02, 0.000, 0.000, 0.000, 10:39:59.962
155, 60156.12, 37444.89, 28294.54, 19445.64, 43044.56, 61134.61, 50045.15, 52189.71, 0.000, 0.000, 0.000, 10:39:59.962
156, 59876.97, 36978.41, 27880.51, 18952.74, 42593.91, 60689.52, 49558.46, 51861.03, 0.000, 0.000, 0.000, 10:39:59.963
157, 59836.09, 36923.67, 27820.61, 18908.28, 42543.50, 60620.84, 49507.95, 51792.63, 0.000, 0.000, 0.000, 10:39:59.963
158, 60091.34, 37350.01, 28197.53, 19377.64, 42959.11, 61026.83, 49953.04, 52087.90, 0.158, 0.056, 0.974, 10:39:59.963
159, 60175.05, 37485.64, 28327.95, 19511.91, 43089.56, 61173.14, 50092.67, 52220.45, 0.000, 0.000, 0.000, 10:39:59.963
160, 59917.00, 37050.56, 27947.68, 19038.88, 42667.73, 60766.14, 49642.30, 51934.03, 0.000, 0.000, 0.000, 10:39:59.964
161, 59793.06, 36858.00, 27766.36, 18866.21, 42484.43, 60569.70, 49456.94, 51772.32, 0.000, 0.000, 0.000, 10:39:59.964
162, 60013.31, 37231.77, 28097.30, 19277.15, 42850.17, 60924.77, 49850.49, 52024.91, 0.000, 0.000, 0.000, 10:39:59.964
163, 60175.57, 37489.98, 28345.10, 19541.73, 43100.04, 61184.12, 50113.41, 52233.43, 0.000, 0.000, 0.000, 10:39:59.964
164, 59961.86, 37121.42, 28020.71, 19145.90, 42738.57, 60840.13, 49727.89, 51990.20, 0.000, 0.000, 0.000, 10:39:59.965
165, 59779.43, 36831.72, 27750.43, 18850.66, 42456.91, 60548.21, 49431.08, 51753.05, 0.000, 0.000, 0.000, 10:39:59.965
166, 59975.34, 37161.03, 28034.88, 19206.70, 42776.23, 60852.20, 49773.42, 51960.23, 0.000, 0.000, 0.000, 10:39:59.965
167, 60192.04, 37505.69, 28350.26, 19566.65, 43109.05, 61192.64, 50130.40, 52232.34, 0.000, 0.000, 0.000, 10:39:59.965
168, 60023.91, 37213.62, 28097.24, 19252.76, 42823.44, 60925.76, 49823.09, 52046.97, 0.160, 0.054, 0.972, 10:39:59.965
169, 59786.06, 36837.48, 27752.33, 18860.78, 42459.57, 60555.52, 49437.25, 51758.46, 0.000, 0.000, 0.000, 10:39:59.966
170, 59917.94, 37077.92, 27956.51, 19119.73, 42694.13, 60771.71, 49687.99, 51900.01, 0.000, 0.000, 0.000, 10:39:59.966
171, 60167.74, 37485.57, 28324.60, 19550.04, 43088.06, 61165.73, 50109.32, 52201.09, 0.000, 0.000, 0.000, 10:39:59.966
172, 60063.83, 37298.04, 28165.68, 19350.66, 42904.21, 61000.55, 49908.07, 52101.49, 0.000, 0.000, 0.000, 10:39:59.966
173, 59805.00, 36868.73, 27774.19, 18892.14, 42486.93, 60584.91, 49461.17, 51789.19, 0.000, 0.000, 0.000, 10:39:59.966
174, 59877.53, 37010.40, 27883.20, 19045.16, 42623.93, 60705.30, 49613.45, 51854.17, 0.000, 0.000, 0.000, 10:39:59.967
175, 60151.00, 37462.15, 28298.22, 19517.47, 43066.07, 61143.91, 50083.98, 52186.88, 0.000, 0.000, 0.000, 10:39:59.967
176, 60122.66, 37390.76, 28244.54, 19435.15, 42992.86, 61091.41, 50009.19, 52171.23, 0.000, 0.000, 0.000, 10:39:59.967
177, 59835.59, 36911.80, 27818.04, 18942.30, 42529.31, 60633.04, 49515.64, 51824.11, 0.160, 0.056, 0.972, 10:39:59.967
178, 59848.45, 36951.39, 27840.35, 18994.76, 42570.10, 60656.44, 49564.25, 51819.43, 0.000, 0.000, 0.000, 10:39:59.967
179, 60108.87, 37394.60, 28236.64, 19458.29, 43003.32, 61080.25, 50022.49, 52128.94, 0.000, 0.000, 0.000, 10:39:59.968
180, 60132.61, 37428.09, 28276.68, 19491.23, 43035.15, 61130.32, 50054.96, 52188.17, 0.000, 0.000, 0.000, 10:39:59.968
181, 59857.59, 36963.21, 27865.11, 18998.47, 42584.96, 60689.43, 49570.36, 51863.80, 0.000, 0.000, 0.000, 10:39:59.968
182, 59803.16, 36891.08, 27792.13, 18933.00, 42517.80, 60602.46, 49498.11, 51776.94, 0.000, 0.000, 0.000, 10:39:59.968
183, 60049.08, 37310.67, 28163.04, 19380.77, 42926.79, 61000.10, 49933.46, 52063.58, 0.000, 0.000, 0.000, 10:39:59.968
184, 60157.01, 37475.70, 28319.62, 19539.85, 43084.73, 61173.17, 50102.59, 52216.71, 0.000, 0.000, 0.000, 10:39:59.968
185, 59906.47, 37045.24, 27933.98, 19081.19, 42663.80, 60767.11, 49653.15, 51920.17, 0.000, 0.000, 0.000, 10:39:59.968
186, 59773.88, 36846.98, 27752.37, 18882.91, 42472.14, 60563.05, 49452.99, 51745.79, 0.000, 0.000, 0.000, 10:39:59.968
187, 59990.14, 37218.69, 28081.23, 19282.94, 42835.29, 60913.96, 49841.50, 51994.07, 0.160, 0.052, 0.972, 10:39:59.968
188, 60157.37, 37487.27, 28328.76, 19559.97, 43093.16, 61183.34, 50116.25, 52213.74, 0.000, 0.000, 0.000, 10:39:59.968
189, 59944.76, 37120.26, 28007.18, 19164.83, 42733.88, 60841.31, 49730.68, 51975.76, 0.000, 0.000, 0.000, 10:39:59.968
190, 59751.08, 36812.65, 27722.73, 18845.29, 42436.35, 60533.13, 49415.93, 51736.17, 0.000, 0.000, 0.000, 10:39:59.969
191, 59933.92, 37125.55, 27992.05, 19184.28, 42742.30, 60820.97, 49742.91, 51932.51, 0.000, 0.000, 0.000, 10:39:59.969
192, 60153.95, 37485.15, 28317.22, 19559.41, 43089.49, 61175.14, 50117.01, 52208.11, 0.000, 0.000, 0.000, 10:39:59.969
193, 60001.04, 37210.04, 28081.46, 19267.27, 42820.18, 60927.46, 49829.32, 52047.13, 0.000, 0.000, 0.000, 10:39:59.969
194, 59771.65, 36828.70, 27735.29, 18877.88, 42451.19, 60553.80, 49437.23, 51762.35, 0.000, 0.000, 0.000, 10:40:00.433
195, 59893.13, 37055.26, 27929.53, 19118.36, 42673.39, 60758.10, 49677.09, 51891.56, 0.000, 0.000, 0.000, 10:40:00.434
196, 60132.92, 37470.13, 28301.62, 19552.57, 43073.24, 61158.46, 50108.25, 52192.02, 0.000, 0.000, 0.000, 10:40:00.434
197, 60033.52, 37287.89, 28150.03, 19348.96, 42894.34, 61000.79, 49913.37, 52095.66, 0.162, 0.050, 0.974, 10:40:00.434
198, 59766.62, 36835.29, 27738.20, 18879.04, 42454.37, 60562.00, 49446.95, 51767.09, 0.000, 0.000, 0.000, 10:40:00.434
199, 59838.08, 36972.82, 27858.23, 19033.18, 42591.80, 60680.04, 49592.84, 51826.25, 0.000, 0.000, 0.000, 10:40:00.434
200, 60095.30, 37420.46, 28255.42, 19510.61, 43026.14, 61109.49, 50059.52, 52134.23, 0.000, 0.000, 0.000, 10:40:00.434
201, 60079.41, 37365.88, 28218.21, 19441.59, 42970.47, 61076.34, 49997.34, 52132.04, 0.000, 0.000, 0.000, 10:40:00.434
202, 59812.71, 36893.45, 27797.28, 18943.62, 42512.43, 60624.70, 49504.73, 51807.86, 0.000, 0.000, 0.000, 10:40:00.434
203, 59806.14, 36902.71, 27791.80, 18958.97, 42521.51, 60612.43, 49520.02, 51778.33, 0.000, 0.000, 0.000, 10:40:00.434
204, 60051.07, 37346.59, 28186.38, 19434.62, 42952.45, 61032.11, 49984.20, 52071.89, 0.000, 0.000, 0.000, 10:40:00.434
205, 60105.74, 37416.33, 28258.97, 19497.78, 43015.75, 61117.91, 50052.57, 52159.54, 0.000, 0.000, 0.000, 10:40:00.434
206, 59844.07, 36943.14, 27841.87, 18985.13, 42556.51, 60672.04, 49555.85, 51849.16, 0.000, 0.000, 0.000, 10:40:00.435
207, 59776.48, 36841.82, 27738.45, 18886.73, 42460.64, 60555.93, 49455.31, 51745.65, 0.160, 0.052, 0.974, 10:40:00.435
208, 60003.39, 37264.31, 28109.24, 19339.89, 42872.43, 60951.26, 49896.00, 52018.83, 0.000, 0.000, 0.000, 10:40:00.435
209, 60118.64, 37447.44, 28284.66, 19531.20, 43047.63, 61143.84, 50084.40, 52177.44, 0.000, 0.000, 0.000, 10:40:00.435
210, 59889.06, 37020.43, 27912.66, 19073.10, 42633.38, 60746.43, 49635.91, 51899.88, 0.000, 0.000, 0.000, 10:40:00.435
211, 59753.21, 36800.11, 27696.92, 18857.23, 42418.34, 60517.64, 49413.76, 51716.68, 0.000, 0.000, 0.000, 10:40:00.435
212, 59954.60, 37177.86, 28029.60, 19262.13, 42787.12, 60866.66, 49806.19, 51946.79, 0.000, 0.000, 0.000, 10:40:00.435
213, 60130.79, 37473.55, 28301.76, 19560.90, 43073.73, 61163.22, 50111.63, 52184.37, 0.000, 0.000, 0.000, 10:40:00.435
214, 59939.04, 37111.89, 27992.45, 19170.55, 42724.66, 60833.24, 49729.79, 51962.46, 0.000, 0.000, 0.000, 10:40:00.435
215, 59739.35, 36784.78, 27693.99, 18837.94, 42411.00, 60507.51, 49391.52, 51711.16, 0.000, 0.000, 0.000, 10:40:00.435
216, 59893.35, 37079.71, 27943.32, 19147.00, 42698.16, 60773.43, 49698.16, 51878.87, 0.000, 0.000, 0.000, 10:40:00.435
217, 60116.31, 37459.15, 28287.16, 19542.00, 43064.08, 61144.83, 50093.01, 52157.64, 0.160, 0.052, 0.972, 10:40:00.435
218, 59978.20, 37192.88, 28063.58, 19250.84, 42803.77, 60907.45, 49811.15, 52000.19, 0.000, 0.000, 0.000, 10:40:00.435
219, 59736.84, 36787.93, 27698.84, 18827.79, 42412.93, 60512.03, 49395.16, 51703.27, 0.000, 0.000, 0.000, 10:40:00.435
220, 59841.50, 36997.75, 27865.72, 19062.82, 42616.30, 60696.56, 49617.72, 51814.65, 0.000, 0.000, 0.000, 10:40:00.435
221, 60097.56, 37441.59, 28267.74, 19539.54, 43045.86, 61123.84, 50077.36, 52131.84, 0.000, 0.000, 0.000, 10:40:00.435
222, 60011.82, 37266.55, 28124.35, 19355.40, 42873.41, 60976.00, 49894.81, 52048.52, 0.000, 0.000, 0.000, 10:40:00.436
223, 59747.08, 36808.41, 27711.09, 18873.77, 42430.29, 60535.65, 49421.79, 51724.24, 0.000, 0.000, 0.000, 10:40:00.436
224, 59806.16, 36938.69, 27814.93, 18992.99, 42558.84, 60641.75, 49552.45, 51772.56, 0.000, 0.000, 0.000, 10:40:00.436
225, 60075.77, 37410.05, 28234.28, 19492.80, 43014.54, 61091.18, 50041.13, 52103.05, 0.000, 0.000, 0.000, 10:40:00.436
226, 60069.06, 37364.79, 28208.86, 19441.28, 42968.52, 61069.23, 49992.60, 52116.00, 0.162, 0.052, 0.972, 10:40:00.436
227, 59796.21, 36881.20, 27780.56, 18928.19, 42501.15, 60608.77, 49490.65, 51784.59, 0.000, 0.000, 0.000, 10:40:00.436
228, 59765.46, 36860.46, 27749.94, 18921.22, 42482.86, 60570.18, 49475.41, 51729.07, 0.000, 0.000, 0.000, 10:40:00.437
229, 60025.14, 37315.75, 28150.99, 19411.51, 42923.68, 60999.00, 49950.56, 52035.95, 0.000, 0.000, 0.000, 10:40:00.437
230, 60084.28, 37392.57, 28231.66, 19490.01, 42995.79, 61092.55, 50025.57, 52133.09, 0.000, 0.000, 0.000, 10:40:00.438
231, 59829.63, 36927.41, 27827.27, 19000.50, 42547.50, 60657.65, 49541.16, 51833.94, 0.000, 0.000, 0.000, 10:40:00.438
232, 59740.76, 36798.01, 27699.73, 18873.63, 42423.97, 60515.51, 49412.64, 51704.07, 0.000, 0.000, 0.000, 10:40:00.438
233, 59980.90, 37223.39, 28066.84, 19330.99, 42836.87, 60912.77, 49858.71, 51980.70, 0.000, 0.000, 0.000, 10:40:00.438
234, 60110.81, 37428.46, 28258.71, 19539.36, 43033.88, 61127.08, 50070.48, 52160.70, 0.000, 0.000, 0.000, 10:40:00.438
235, 59883.38, 37012.12, 27904.01, 19093.84, 42631.61, 60742.38, 49634.93, 51895.23, 0.000, 0.000, 0.000, 10:40:00.438
236, 59730.59, 36769.94, 27676.53, 18856.60, 42398.98, 60495.13, 49388.93, 51697.21, 0.160, 0.048, 0.976, 10:40:00.438
237, 59932.91, 37135.86, 27993.90, 19252.65, 42754.93, 60833.80, 49772.33, 51931.24, 0.000, 0.000, 0.000, 10:40:00.438
238, 60119.35, 37445.41, 28279.85, 19568.10, 43053.10, 61142.84, 50091.02, 52178.11, 0.000, 0.000, 0.000, 10:40:00.438
239, 59925.61, 37086.75, 27973.25, 19171.49, 42706.18, 60815.36, 49712.65, 51955.31, 0.000, 0.000, 0.000, 10:40:00.438
240, 59733.54, 36756.04, 27671.41, 18832.53, 42386.89, 60487.37, 49373.64, 51702.82, 0.000, 0.000, 0.000, 10:40:00.438
241, 59886.85, 37042.45, 27913.84, 19141.79, 42663.87, 60744.13, 49670.13, 51865.23, 0.000, 0.000, 0.000, 10:40:00.438
